
 ------------------------------------------------------------
     normal          Raman Scattering Plot
 ------------------------------------------------------------
 Excitation wavelength  514.50 nm
 Convolution lineshape is lorentzian  
 FWHM   20.00  1/cm
 ------------------------------------------------------------
 ------------------------------------------------------------
 # of frequencies :    54
 ------------------------------------------------------------
 #  freq [ 1/cm]  S [Ang**4/amu]
 ------------------------------------------------------------
   1    27.87      111.6264
   2    49.26      428.7985
   3    49.27       27.7179
   4    71.40       62.5938
   5    81.51      264.9554
   6   122.31     1189.2915
   7   122.31        3.9698
   8   171.09      947.8789
   9   171.44       80.2914
  10   212.10      354.4726
  11   226.21       90.8827
  12   226.21       37.2829
  13   283.91       66.3841
  14   283.96     2281.4668
  15   337.33       31.6187
  16   337.34       22.9007
  17   411.13      764.1647
  18   412.91    12400.6785
  19   424.96     1385.1221
  20   460.37        1.8159
  21   460.37        5.7194
  22   506.32        2.1033
  23   506.52      857.8016
  24   551.66      158.2336
  25   551.67        2.7479
  26   593.87       10.0974
  27   594.20      325.6275
  28   628.34       11.6105
  29   628.34       68.3578
  30   636.86       54.5029
  31   652.15      179.3555
  32   652.76     3050.8495
  33   672.66      140.6955
  34   672.66      214.9203
  35   693.99      702.1799
  36   694.22      240.7820
  37   727.27      146.4693
  38   727.27       95.5745
  39   841.99      375.5722
  40  1033.99     1272.6269
  41  1214.70    22071.5672
  42  1381.29     5764.1515
  43  1526.48     1158.1015
  44  1922.12   557802.7292
  45  1945.38     1532.6779
  46  1995.30      849.2480
  47  2052.05     3784.9831
  48  2087.42     6070.5210
  49  2114.79       85.9415
  50  2158.94     2841.0420
  51  2162.75    78700.3827
  52  2180.64     1333.4949
  53  3433.06    14268.0032
  54  3433.76     3201.3602
 ------------------------------------------------------------
   -28.60     5.171    
   -25.07     5.729    
   -21.54     6.388    
   -18.01     7.176    
   -14.49     8.131    
   -10.96     9.304    
    -7.43     10.77    
    -3.90     12.63    
    -0.37     15.06    
     3.16     18.30    
     6.69     22.75    
    10.22     29.05    
    13.75     38.23    
    17.28     51.76    
    20.81     70.88    
    24.34     93.10    
    27.87     107.4    
    31.40     105.1    
    34.93     96.95    
    38.46     96.27    
    41.99     107.4    
    45.52     126.1    
    49.04     136.0    
    52.57     122.2    
    56.10     95.73    
    59.63     73.01    
    63.16     58.44    
    66.69     50.81    
    70.22     47.73    
    73.75     47.03    
    77.28     47.70    
    80.81     47.42    
    84.34     42.76    
    87.87     35.39    
    91.40     29.10    
    94.93     25.11    
    98.46     23.25    
   101.99     23.26    
   105.52     25.21    
   109.04     29.58    
   112.57     37.15    
   116.10     48.24    
   119.63     59.68    
   123.16     62.66    
   126.69     53.63    
   130.22     40.74    
   133.75     30.35    
   137.28     23.36    
   140.81     18.92    
   144.34     16.24    
   147.87     14.83    
   151.40     14.48    
   154.93     15.20    
   158.46     17.22    
   161.99     20.93    
   165.52     26.29    
   169.04     31.29    
   172.57     31.52    
   176.10     26.37    
   179.63     20.13    
   183.16     15.33    
   186.69     12.14    
   190.22     10.14    
   193.75     8.987    
   197.28     8.485    
   200.81     8.586    
   204.34     9.300    
   207.87     10.46    
   211.40     11.28    
   214.93     10.83    
   218.46     9.615    
   221.99     8.584    
   225.52     7.817    
   229.05     6.956    
   232.57     6.045    
   236.10     5.335    
   239.63     4.889    
   243.16     4.668    
   246.69     4.631    
   250.22     4.763    
   253.75     5.074    
   257.28     5.604    
   260.81     6.431    
   264.34     7.695    
   267.87     9.630    
   271.40     12.60    
   274.93     17.08    
   278.46     23.06    
   281.99     28.46    
   285.52     28.83    
   289.05     23.76    
   292.57     17.63    
   296.10     12.91    
   299.63     9.726    
   303.16     7.633    
   306.69     6.240    
   310.22     5.293    
   313.75     4.642    
   317.28     4.194    
   320.81     3.894    
   324.34     3.714    
   327.87     3.636    
   331.40     3.649    
   334.93     3.711    
   338.46     3.738    
   341.99     3.706    
   345.52     3.690    
   349.05     3.742    
   352.58     3.875    
   356.10     4.086    
   359.63     4.381    
   363.16     4.770    
   366.69     5.272    
   370.22     5.916    
   373.75     6.747    
   377.28     7.828    
   380.81     9.257    
   384.34     11.18    
   387.87     13.84    
   391.40     17.60    
   394.93     23.08    
   398.46     31.27    
   401.99     43.62    
   405.52     61.35    
   409.05     82.01    
   412.58     94.06    
   416.10     86.87    
   419.63     69.14    
   423.16     52.89    
   426.69     40.20    
   430.22     30.05    
   433.75     22.43    
   437.28     17.08    
   440.81     13.35    
   444.34     10.72    
   447.87     8.822    
   451.40     7.412    
   454.93     6.345    
   458.46     5.522    
   461.99     4.872    
   465.52     4.351    
   469.05     3.937    
   472.58     3.617    
   476.10     3.378    
   479.63     3.218    
   483.16     3.139    
   486.69     3.157    
   490.22     3.304    
   493.75     3.632    
   497.28     4.214    
   500.81     5.057    
   504.34     5.852    
   507.87     5.892    
   511.40     5.045    
   514.93     3.997    
   518.46     3.175    
   521.99     2.612    
   525.52     2.236    
   529.05     1.987    
   532.58     1.827    
   536.11     1.736    
   539.63     1.711    
   543.16     1.752    
   546.69     1.849    
   550.22     1.930    
   553.75     1.876    
   557.28     1.703    
   560.81     1.530    
   564.34     1.410    
   567.87     1.344    
   571.40     1.326    
   574.93     1.352    
   578.46     1.429    
   581.99     1.573    
   585.52     1.805    
   589.05     2.119    
   592.58     2.392    
   596.11     2.404    
   599.63     2.172    
   603.16     1.921    
   606.69     1.767    
   610.22     1.714    
   613.75     1.749    
   617.28     1.869    
   620.81     2.080    
   624.34     2.390    
   627.87     2.791    
   631.40     3.289    
   634.93     3.975    
   638.46     4.993    
   641.99     6.545    
   645.52     8.818    
   649.05     11.48    
   652.58     12.93    
   656.11     11.79    
   659.64     9.297    
   663.16     7.154    
   666.69     5.808    
   670.22     5.051    
   673.75     4.505    
   677.28     4.000    
   680.81     3.682    
   684.34     3.684    
   687.87     4.012    
   691.40     4.446    
   694.93     4.456    
   698.46     3.827    
   701.99     3.013    
   705.52     2.368    
   709.05     1.939    
   712.58     1.680    
   716.11     1.553    
   719.64     1.533    
   723.16     1.585    
   726.69     1.600    
   730.22     1.465    
   733.75     1.236    
   737.28     1.026    
   740.81    0.8706    
   744.34    0.7596    
   747.87    0.6792    
   751.40    0.6192    
   754.93    0.5728    
   758.46    0.5360    
   761.99    0.5061    
   765.52    0.4815    
   769.05    0.4609    
   772.58    0.4437    
   776.11    0.4291    
   779.64    0.4169    
   783.16    0.4067    
   786.69    0.3985    
   790.22    0.3922    
   793.75    0.3879    
   797.28    0.3856    
   800.81    0.3857    
   804.34    0.3886    
   807.87    0.3952    
   811.40    0.4066    
   814.93    0.4246    
   818.46    0.4524    
   821.99    0.4949    
   825.52    0.5603    
   829.05    0.6615    
   832.58    0.8153    
   836.11     1.026    
   839.64     1.229    
   843.17     1.265    
   846.69     1.093    
   850.22    0.8658    
   853.75    0.6853    
   857.28    0.5620    
   860.81    0.4798    
   864.34    0.4241    
   867.87    0.3851    
   871.40    0.3570    
   874.93    0.3362    
   878.46    0.3204    
   881.99    0.3081    
   885.52    0.2984    
   889.05    0.2906    
   892.58    0.2843    
   896.11    0.2792    
   899.64    0.2751    
   903.17    0.2717    
   906.69    0.2691    
   910.22    0.2669    
   913.75    0.2653    
   917.28    0.2642    
   920.81    0.2635    
   924.34    0.2631    
   927.87    0.2632    
   931.40    0.2636    
   934.93    0.2644    
   938.46    0.2656    
   941.99    0.2673    
   945.52    0.2693    
   949.05    0.2718    
   952.58    0.2749    
   956.11    0.2785    
   959.64    0.2828    
   963.17    0.2878    
   966.70    0.2938    
   970.22    0.3007    
   973.75    0.3089    
   977.28    0.3187    
   980.81    0.3303    
   984.34    0.3442    
   987.87    0.3612    
   991.40    0.3821    
   994.93    0.4082    
   998.46    0.4415    
  1001.99    0.4846    
  1005.52    0.5418    
  1009.05    0.6199    
  1012.58    0.7296    
  1016.11    0.8886    
  1019.64     1.125    
  1023.17     1.482    
  1026.70     1.993    
  1030.22     2.586    
  1033.75     2.917    
  1037.28     2.665    
  1040.81     2.089    
  1044.34     1.566    
  1047.87     1.199    
  1051.40    0.9569    
  1054.93    0.7983    
  1058.46    0.6922    
  1061.99    0.6200    
  1065.52    0.5702    
  1069.05    0.5356    
  1072.58    0.5119    
  1076.11    0.4961    
  1079.64    0.4864    
  1083.17    0.4814    
  1086.70    0.4804    
  1090.22    0.4826    
  1093.75    0.4879    
  1097.28    0.4959    
  1100.81    0.5065    
  1104.34    0.5196    
  1107.87    0.5354    
  1111.40    0.5539    
  1114.93    0.5754    
  1118.46    0.6001    
  1121.99    0.6283    
  1125.52    0.6605    
  1129.05    0.6972    
  1132.58    0.7392    
  1136.11    0.7873    
  1139.64    0.8426    
  1143.17    0.9064    
  1146.70    0.9803    
  1150.23     1.067    
  1153.75     1.168    
  1157.28     1.288    
  1160.81     1.432    
  1164.34     1.606    
  1167.87     1.818    
  1171.40     2.080    
  1174.93     2.411    
  1178.46     2.833    
  1181.99     3.383    
  1185.52     4.116    
  1189.05     5.119    
  1192.58     6.530    
  1196.11     8.574    
  1199.64     11.62    
  1203.17     16.22    
  1206.70     22.96    
  1210.23     31.31    
  1213.75     37.21    
  1217.28     35.20    
  1220.81     27.38    
  1224.34     19.55    
  1227.87     13.86    
  1231.40     10.06    
  1234.93     7.543    
  1238.46     5.833    
  1241.99     4.638    
  1245.52     3.777    
  1249.05     3.141    
  1252.58     2.660    
  1256.11     2.289    
  1259.64     1.997    
  1263.17     1.764    
  1266.70     1.575    
  1270.23     1.422    
  1273.75     1.295    
  1277.28     1.189    
  1280.81     1.101    
  1284.34     1.027    
  1287.87    0.9654    
  1291.40    0.9134    
  1294.93    0.8700    
  1298.46    0.8341    
  1301.99    0.8050    
  1305.52    0.7820    
  1309.05    0.7647    
  1312.58    0.7530    
  1316.11    0.7469    
  1319.64    0.7465    
  1323.17    0.7524    
  1326.70    0.7652    
  1330.23    0.7861    
  1333.76    0.8165    
  1337.28    0.8589    
  1340.81    0.9166    
  1344.34    0.9945    
  1347.87     1.100    
  1351.40     1.244    
  1354.93     1.443    
  1358.46     1.726    
  1361.99     2.138    
  1365.52     2.752    
  1369.05     3.683    
  1372.58     5.067    
  1376.11     6.876    
  1379.64     8.401    
  1383.17     8.337    
  1386.70     6.749    
  1390.23     4.949    
  1393.76     3.589    
  1397.28     2.675    
  1400.81     2.070    
  1404.34     1.660    
  1407.87     1.376    
  1411.40     1.172    
  1414.93     1.022    
  1418.46    0.9095    
  1421.99    0.8229    
  1425.52    0.7553    
  1429.05    0.7017    
  1432.58    0.6588    
  1436.11    0.6241    
  1439.64    0.5960    
  1443.17    0.5731    
  1446.70    0.5544    
  1450.23    0.5393    
  1453.76    0.5273    
  1457.29    0.5178    
  1460.81    0.5108    
  1464.34    0.5059    
  1467.87    0.5031    
  1471.40    0.5024    
  1474.93    0.5038    
  1478.46    0.5075    
  1481.99    0.5138    
  1485.52    0.5232    
  1489.05    0.5365    
  1492.58    0.5548    
  1496.11    0.5800    
  1499.64    0.6148    
  1503.17    0.6639    
  1506.70    0.7346    
  1510.23    0.8391    
  1513.76    0.9964    
  1517.29     1.231    
  1520.81     1.546    
  1524.34     1.838    
  1527.87     1.876    
  1531.40     1.624    
  1534.93     1.306    
  1538.46     1.059    
  1541.99    0.8934    
  1545.52    0.7857    
  1549.05    0.7150    
  1552.58    0.6678    
  1556.11    0.6360    
  1559.64    0.6144    
  1563.17    0.5998    
  1566.70    0.5904    
  1570.23    0.5847    
  1573.76    0.5818    
  1577.29    0.5812    
  1580.81    0.5823    
  1584.34    0.5849    
  1587.87    0.5887    
  1591.40    0.5936    
  1594.93    0.5994    
  1598.46    0.6061    
  1601.99    0.6135    
  1605.52    0.6217    
  1609.05    0.6305    
  1612.58    0.6400    
  1616.11    0.6501    
  1619.64    0.6609    
  1623.17    0.6723    
  1626.70    0.6844    
  1630.23    0.6970    
  1633.76    0.7104    
  1637.29    0.7243    
  1640.82    0.7390    
  1644.34    0.7544    
  1647.87    0.7704    
  1651.40    0.7873    
  1654.93    0.8049    
  1658.46    0.8233    
  1661.99    0.8426    
  1665.52    0.8627    
  1669.05    0.8838    
  1672.58    0.9058    
  1676.11    0.9289    
  1679.64    0.9531    
  1683.17    0.9784    
  1686.70     1.005    
  1690.23     1.033    
  1693.76     1.062    
  1697.29     1.092    
  1700.82     1.124    
  1704.34     1.158    
  1707.87     1.193    
  1711.40     1.231    
  1714.93     1.270    
  1718.46     1.311    
  1721.99     1.355    
  1725.52     1.400    
  1729.05     1.449    
  1732.58     1.500    
  1736.11     1.554    
  1739.64     1.611    
  1743.17     1.672    
  1746.70     1.737    
  1750.23     1.805    
  1753.76     1.878    
  1757.29     1.955    
  1760.82     2.038    
  1764.35     2.126    
  1767.87     2.220    
  1771.40     2.321    
  1774.93     2.430    
  1778.46     2.546    
  1781.99     2.671    
  1785.52     2.806    
  1789.05     2.952    
  1792.58     3.109    
  1796.11     3.280    
  1799.64     3.466    
  1803.17     3.668    
  1806.70     3.889    
  1810.23     4.131    
  1813.76     4.396    
  1817.29     4.689    
  1820.82     5.012    
  1824.35     5.370    
  1827.87     5.768    
  1831.40     6.213    
  1834.93     6.712    
  1838.46     7.274    
  1841.99     7.910    
  1845.52     8.634    
  1849.05     9.463    
  1852.58     10.42    
  1856.11     11.52    
  1859.64     12.82    
  1863.17     14.34    
  1866.70     16.15    
  1870.23     18.33    
  1873.76     20.97    
  1877.29     24.22    
  1880.82     28.27    
  1884.35     33.42    
  1887.87     40.06    
  1891.40     48.83    
  1894.93     60.69    
  1898.46     77.16    
  1901.99     100.7    
  1905.52     135.4    
  1909.05     187.7    
  1912.58     266.0    
  1916.11     373.2    
  1919.64     478.5    
  1923.17     502.4    
  1926.70     420.1    
  1930.23     306.8    
  1933.76     216.4    
  1937.29     154.8    
  1940.82     114.3    
  1944.35     87.04    
  1947.88     68.03    
  1951.40     54.27    
  1954.93     44.12    
  1958.46     36.52    
  1961.99     30.71    
  1965.52     26.19    
  1969.05     22.62    
  1972.58     19.75    
  1976.11     17.42    
  1979.64     15.52    
  1983.17     13.98    
  1986.70     12.73    
  1990.23     11.73    
  1993.76     10.86    
  1997.29     9.996    
  2000.82     9.115    
  2004.35     8.316    
  2007.88     7.643    
  2011.40     7.084    
  2014.93     6.619    
  2018.46     6.233    
  2021.99     5.917    
  2025.52     5.669    
  2029.05     5.493    
  2032.58     5.400    
  2036.11     5.414    
  2039.64     5.577    
  2043.17     5.937    
  2046.70     6.493    
  2050.23     6.991    
  2053.76     6.937    
  2057.29     6.323    
  2060.82     5.656    
  2064.35     5.214    
  2067.88     5.031    
  2071.41     5.097    
  2074.93     5.436    
  2078.46     6.102    
  2081.99     7.076    
  2085.52     7.965    
  2089.05     7.986    
  2092.58     7.092    
  2096.11     6.056    
  2099.64     5.305    
  2103.17     4.861    
  2106.70     4.650    
  2110.23     4.611    
  2113.76     4.705    
  2117.29     4.910    
  2120.82     5.237    
  2124.35     5.718    
  2127.88     6.399    
  2131.41     7.347    
  2134.93     8.671    
  2138.46     10.54    
  2141.99     13.25    
  2145.52     17.25    
  2149.05     23.30    
  2152.58     32.39    
  2156.11     45.03    
  2159.64     58.30    
  2163.17     63.21    
  2166.70     54.77    
  2170.23     41.00    
  2173.76     29.50    
  2177.29     21.63    
  2180.82     16.36    
  2184.35     12.64    
  2187.88     9.935    
  2191.41     7.976    
  2194.93     6.550    
  2198.46     5.491    
  2201.99     4.685    
  2205.52     4.059    
  2209.05     3.562    
  2212.58     3.160    
  2216.11     2.831    
  2219.64     2.558    
  2223.17     2.328    
  2226.70     2.132    
  2230.23     1.964    
  2233.76     1.819    
  2237.29     1.692    
  2240.82     1.580    
  2244.35     1.482    
  2247.88     1.394    
  2251.41     1.315    
  2254.94     1.244    
  2258.46     1.180    
  2261.99     1.122    
  2265.52     1.069    
  2269.05     1.021    
  2272.58    0.9762    
  2276.11    0.9352    
  2279.64    0.8974    
  2283.17    0.8623    
  2286.70    0.8296    
  2290.23    0.7993    
  2293.76    0.7709    
  2297.29    0.7444    
  2300.82    0.7195    
  2304.35    0.6961    
  2307.88    0.6741    
  2311.41    0.6533    
  2314.94    0.6337    
  2318.46    0.6151    
  2321.99    0.5976    
  2325.52    0.5809    
  2329.05    0.5650    
  2332.58    0.5499    
  2336.11    0.5356    
  2339.64    0.5219    
  2343.17    0.5088    
  2346.70    0.4963    
  2350.23    0.4843    
  2353.76    0.4729    
  2357.29    0.4619    
  2360.82    0.4514    
  2364.35    0.4413    
  2367.88    0.4316    
  2371.41    0.4222    
  2374.94    0.4132    
  2378.47    0.4046    
  2381.99    0.3962    
  2385.52    0.3882    
  2389.05    0.3804    
  2392.58    0.3729    
  2396.11    0.3656    
  2399.64    0.3586    
  2403.17    0.3519    
  2406.70    0.3453    
  2410.23    0.3390    
  2413.76    0.3328    
  2417.29    0.3268    
  2420.82    0.3211    
  2424.35    0.3155    
  2427.88    0.3100    
  2431.41    0.3047    
  2434.94    0.2996    
  2438.47    0.2946    
  2441.99    0.2898    
  2445.52    0.2850    
  2449.05    0.2805    
  2452.58    0.2760    
  2456.11    0.2717    
  2459.64    0.2674    
  2463.17    0.2633    
  2466.70    0.2593    
  2470.23    0.2554    
  2473.76    0.2516    
  2477.29    0.2479    
  2480.82    0.2442    
  2484.35    0.2407    
  2487.88    0.2372    
  2491.41    0.2339    
  2494.94    0.2306    
  2498.47    0.2273    
  2501.99    0.2242    
  2505.52    0.2211    
  2509.05    0.2181    
  2512.58    0.2152    
  2516.11    0.2123    
  2519.64    0.2095    
  2523.17    0.2068    
  2526.70    0.2041    
  2530.23    0.2015    
  2533.76    0.1989    
  2537.29    0.1964    
  2540.82    0.1939    
  2544.35    0.1915    
  2547.88    0.1891    
  2551.41    0.1868    
  2554.94    0.1845    
  2558.47    0.1823    
  2562.00    0.1801    
  2565.52    0.1780    
  2569.05    0.1759    
  2572.58    0.1738    
  2576.11    0.1718    
  2579.64    0.1698    
  2583.17    0.1679    
  2586.70    0.1660    
  2590.23    0.1641    
  2593.76    0.1622    
  2597.29    0.1604    
  2600.82    0.1587    
  2604.35    0.1569    
  2607.88    0.1552    
  2611.41    0.1535    
  2614.94    0.1519    
  2618.47    0.1503    
  2622.00    0.1487    
  2625.52    0.1471    
  2629.05    0.1456    
  2632.58    0.1441    
  2636.11    0.1426    
  2639.64    0.1411    
  2643.17    0.1397    
  2646.70    0.1383    
  2650.23    0.1369    
  2653.76    0.1355    
  2657.29    0.1342    
  2660.82    0.1329    
  2664.35    0.1316    
  2667.88    0.1303    
  2671.41    0.1290    
  2674.94    0.1278    
  2678.47    0.1266    
  2682.00    0.1254    
  2685.53    0.1242    
  2689.05    0.1230    
  2692.58    0.1219    
  2696.11    0.1208    
  2699.64    0.1197    
  2703.17    0.1186    
  2706.70    0.1175    
  2710.23    0.1164    
  2713.76    0.1154    
  2717.29    0.1144    
  2720.82    0.1133    
  2724.35    0.1123    
  2727.88    0.1114    
  2731.41    0.1104    
  2734.94    0.1094    
  2738.47    0.1085    
  2742.00    0.1076    
  2745.53    0.1067    
  2749.05    0.1058    
  2752.58    0.1049    
  2756.11    0.1040    
  2759.64    0.1031    
  2763.17    0.1023    
  2766.70    0.1014    
  2770.23    0.1006    
  2773.76    0.9979E-01
  2777.29    0.9899E-01
  2780.82    0.9819E-01
  2784.35    0.9741E-01
  2787.88    0.9664E-01
  2791.41    0.9588E-01
  2794.94    0.9512E-01
  2798.47    0.9438E-01
  2802.00    0.9365E-01
  2805.53    0.9293E-01
  2809.05    0.9222E-01
  2812.58    0.9152E-01
  2816.11    0.9082E-01
  2819.64    0.9014E-01
  2823.17    0.8947E-01
  2826.70    0.8880E-01
  2830.23    0.8814E-01
  2833.76    0.8750E-01
  2837.29    0.8686E-01
  2840.82    0.8623E-01
  2844.35    0.8560E-01
  2847.88    0.8499E-01
  2851.41    0.8438E-01
  2854.94    0.8378E-01
  2858.47    0.8319E-01
  2862.00    0.8261E-01
  2865.53    0.8203E-01
  2869.06    0.8147E-01
  2872.58    0.8090E-01
  2876.11    0.8035E-01
  2879.64    0.7981E-01
  2883.17    0.7927E-01
  2886.70    0.7873E-01
  2890.23    0.7821E-01
  2893.76    0.7769E-01
  2897.29    0.7718E-01
  2900.82    0.7667E-01
  2904.35    0.7618E-01
  2907.88    0.7568E-01
  2911.41    0.7520E-01
  2914.94    0.7472E-01
  2918.47    0.7425E-01
  2922.00    0.7378E-01
  2925.53    0.7332E-01
  2929.06    0.7286E-01
  2932.58    0.7242E-01
  2936.11    0.7197E-01
  2939.64    0.7154E-01
  2943.17    0.7111E-01
  2946.70    0.7068E-01
  2950.23    0.7026E-01
  2953.76    0.6985E-01
  2957.29    0.6944E-01
  2960.82    0.6904E-01
  2964.35    0.6864E-01
  2967.88    0.6825E-01
  2971.41    0.6787E-01
  2974.94    0.6749E-01
  2978.47    0.6711E-01
  2982.00    0.6674E-01
  2985.53    0.6638E-01
  2989.06    0.6602E-01
  2992.58    0.6567E-01
  2996.11    0.6532E-01
  2999.64    0.6498E-01
  3003.17    0.6464E-01
  3006.70    0.6431E-01
  3010.23    0.6398E-01
  3013.76    0.6366E-01
  3017.29    0.6334E-01
  3020.82    0.6303E-01
  3024.35    0.6273E-01
  3027.88    0.6243E-01
  3031.41    0.6213E-01
  3034.94    0.6184E-01
  3038.47    0.6156E-01
  3042.00    0.6128E-01
  3045.53    0.6101E-01
  3049.06    0.6074E-01
  3052.59    0.6047E-01
  3056.11    0.6022E-01
  3059.64    0.5996E-01
  3063.17    0.5972E-01
  3066.70    0.5948E-01
  3070.23    0.5924E-01
  3073.76    0.5901E-01
  3077.29    0.5879E-01
  3080.82    0.5857E-01
  3084.35    0.5836E-01
  3087.88    0.5815E-01
  3091.41    0.5795E-01
  3094.94    0.5776E-01
  3098.47    0.5757E-01
  3102.00    0.5739E-01
  3105.53    0.5722E-01
  3109.06    0.5705E-01
  3112.59    0.5689E-01
  3116.11    0.5673E-01
  3119.64    0.5659E-01
  3123.17    0.5645E-01
  3126.70    0.5632E-01
  3130.23    0.5619E-01
  3133.76    0.5608E-01
  3137.29    0.5597E-01
  3140.82    0.5587E-01
  3144.35    0.5578E-01
  3147.88    0.5570E-01
  3151.41    0.5562E-01
  3154.94    0.5556E-01
  3158.47    0.5551E-01
  3162.00    0.5546E-01
  3165.53    0.5543E-01
  3169.06    0.5541E-01
  3172.59    0.5540E-01
  3176.12    0.5541E-01
  3179.64    0.5542E-01
  3183.17    0.5545E-01
  3186.70    0.5549E-01
  3190.23    0.5555E-01
  3193.76    0.5562E-01
  3197.29    0.5571E-01
  3200.82    0.5582E-01
  3204.35    0.5594E-01
  3207.88    0.5608E-01
  3211.41    0.5624E-01
  3214.94    0.5643E-01
  3218.47    0.5663E-01
  3222.00    0.5686E-01
  3225.53    0.5711E-01
  3229.06    0.5739E-01
  3232.59    0.5770E-01
  3236.12    0.5804E-01
  3239.64    0.5841E-01
  3243.17    0.5881E-01
  3246.70    0.5925E-01
  3250.23    0.5974E-01
  3253.76    0.6026E-01
  3257.29    0.6083E-01
  3260.82    0.6145E-01
  3264.35    0.6212E-01
  3267.88    0.6285E-01
  3271.41    0.6365E-01
  3274.94    0.6451E-01
  3278.47    0.6545E-01
  3282.00    0.6647E-01
  3285.53    0.6757E-01
  3289.06    0.6878E-01
  3292.59    0.7009E-01
  3296.12    0.7152E-01
  3299.64    0.7308E-01
  3303.17    0.7479E-01
  3306.70    0.7666E-01
  3310.23    0.7870E-01
  3313.76    0.8095E-01
  3317.29    0.8342E-01
  3320.82    0.8614E-01
  3324.35    0.8915E-01
  3327.88    0.9248E-01
  3331.41    0.9617E-01
  3334.94    0.1003    
  3338.47    0.1049    
  3342.00    0.1101    
  3345.53    0.1159    
  3349.06    0.1224    
  3352.59    0.1299    
  3356.12    0.1384    
  3359.65    0.1481    
  3363.17    0.1593    
  3366.70    0.1724    
  3370.23    0.1877    
  3373.76    0.2057    
  3377.29    0.2271    
  3380.82    0.2528    
  3384.35    0.2840    
  3387.88    0.3223    
  3391.41    0.3702    
  3394.94    0.4307    
  3398.47    0.5089    
  3402.00    0.6117    
  3405.53    0.7504    
  3409.06    0.9423    
  3412.59     1.216    
  3416.12     1.617    
  3419.65     2.221    
  3423.17     3.130    
  3426.70     4.398    
  3430.23     5.733    
  3433.76     6.210    
  3437.29     5.340    
  3440.82     3.953    
  3444.35     2.796    
  3447.88     1.997    
  3451.41     1.468    
  3454.94     1.114    
  3458.47    0.8710    
  3462.00    0.6984    
  3465.53    0.5726    
  3469.06    0.4784    
  3472.59    0.4063    
  3476.12    0.3500    
  3479.65    0.3053    
  3483.18    0.2692    
  3486.70    0.2396    
  3490.23    0.2151    
  3493.76    0.1946    
  3497.29    0.1773    
