
 ------------------------------------------------------------
     normal          Raman Scattering Plot
 ------------------------------------------------------------
 Excitation wavelength  514.50 nm
 Convolution lineshape is lorentzian  
 FWHM   20.00  1/cm
 ------------------------------------------------------------
 ------------------------------------------------------------
 # of frequencies :    60
 ------------------------------------------------------------
 #  freq [ 1/cm]  S [Ang**4/amu]
 ------------------------------------------------------------
   1    40.93     9961.3577
   2    63.40    53121.8306
   3    63.40     3129.4540
   4    91.20     1308.8073
   5    93.66    21632.0940
   6   127.67       43.4594
   7   127.67      855.3165
   8   167.96     5626.9118
   9   168.90    44579.8173
  10   178.98   129022.8478
  11   214.60      241.8698
  12   214.60      847.5535
  13   264.13    32679.1213
  14   264.51     9589.8323
  15   315.61      220.4033
  16   315.64     2139.4205
  17   362.36      118.3784
  18   362.45     8114.8683
  19   372.70   117054.4518
  20   428.68   255254.6715
  21   428.73        2.2364
  22   471.51     2099.9309
  23   471.56    34997.8210
  24   512.38    30052.4542
  25   512.40        8.5034
  26   552.57      451.2557
  27   552.67   267858.6854
  28   554.60     1373.0257
  29   591.47      433.6224
  30   591.49      548.3099
  31   623.81  2840209.1370
  32   624.87     1443.8781
  33   646.95      660.6740
  34   646.95    17482.2105
  35   665.89   412110.5636
  36   668.11     3256.2239
  37   690.31     7563.9321
  38   690.33      253.2840
  39   717.81    50191.5012
  40   718.09    34067.5447
  41   739.72      936.7733
  42   755.28    22272.4862
  43   755.28      130.8534
  44   914.87     3742.6647
  45  1077.78     5278.6164
  46  1231.48   311600.1591
  47  1372.11     3381.3532
  48  1494.55   466050.9803
  49  1828.91  1604624.6050
  50  1901.06  1608428.0756
  51  1945.52   175619.4360
  52  1988.18   183218.6048
  53  2002.43   136663.1033
  54  2042.75   948863.2897
  55  2084.50  2352049.1672
  56  2087.70   485804.9729
  57  2115.22    14742.6346
  58  2117.75   601919.5753
  59  3426.54  1668059.0224
  60  3427.61  1749675.2975
 ------------------------------------------------------------
   -15.56     282.5    
   -12.05     311.6    
    -8.54     345.7    
    -5.03     386.2    
    -1.52     434.8    
     1.99     493.9    
     5.50     566.9    
     9.01     658.6    
    12.52     776.3    
    16.03     931.0    
    19.54     1140.    
    23.05     1431.    
    26.56     1847.    
    30.07     2452.    
    33.59     3306.    
    37.10     4335.    
    40.61     5111.    
    44.12     5243.    
    47.63     5137.    
    51.14     5429.    
    54.65     6413.    
    58.16     8028.    
    61.67     9482.    
    65.18     9353.    
    68.69     7632.    
    72.20     5699.    
    75.71     4277.    
    79.22     3400.    
    82.73     2947.    
    86.24     2816.    
    89.75     2877.    
    93.26     2859.    
    96.77     2523.    
   100.28     2013.    
   103.79     1565.    
   107.30     1242.    
   110.81     1022.    
   114.32     872.0    
   117.83     771.4    
   121.34     705.9    
   124.85     665.1    
   128.36     638.0    
   131.87     619.5    
   135.38     614.6    
   138.89     629.1    
   142.40     667.4    
   145.91     735.3    
   149.42     843.3    
   152.93     1009.    
   156.44     1262.    
   159.95     1642.    
   163.46     2175.    
   166.97     2795.    
   170.48     3340.    
   173.99     3783.    
   177.50     4046.    
   181.01     3751.    
   184.52     2966.    
   188.03     2170.    
   191.54     1580.    
   195.05     1181.    
   198.56     913.6    
   202.07     731.6    
   205.58     604.8    
   209.09     515.0    
   212.60     449.1    
   216.11     396.9    
   219.63     353.4    
   223.14     318.7    
   226.65     292.8    
   230.16     274.6    
   233.67     263.5    
   237.18     259.4    
   240.69     263.2    
   244.20     277.0    
   247.71     305.0    
   251.22     353.8    
   254.73     432.4    
   258.24     543.4    
   261.75     652.7    
   265.26     674.0    
   268.77     580.0    
   272.28     452.2    
   275.79     349.3    
   279.30     278.5    
   282.81     231.3    
   286.32     199.6    
   289.83     177.8    
   293.34     162.9    
   296.85     152.8    
   300.36     146.5    
   303.87     143.5    
   307.38     143.9    
   310.89     146.9    
   314.40     150.2    
   317.91     150.0    
   321.42     147.3    
   324.93     145.9    
   328.44     147.7    
   331.95     152.9    
   335.46     161.9    
   338.97     175.4    
   342.48     194.5    
   345.99     221.7    
   349.50     260.5    
   353.01     317.0    
   356.52     399.1    
   360.03     514.8    
   363.54     668.8    
   367.05     859.9    
   370.56     1033.    
   374.07     1050.    
   377.58     888.5    
   381.09     687.5    
   384.60     534.8    
   388.11     437.4    
   391.62     381.3    
   395.13     354.5    
   398.64     350.5    
   402.15     367.2    
   405.67     406.8    
   409.18     475.9    
   412.69     587.3    
   416.20     762.4    
   419.71     1028.    
   423.22     1382.    
   426.73     1700.    
   430.24     1721.    
   433.75     1423.    
   437.26     1061.    
   440.77     782.4    
   444.28     596.7    
   447.79     477.6    
   451.30     402.8    
   454.81     359.1    
   458.32     339.8    
   461.83     342.8    
   465.34     366.0    
   468.85     395.8    
   472.36     398.9    
   475.87     360.8    
   479.38     310.6    
   482.89     271.8    
   486.40     247.9    
   489.91     236.4    
   493.42     234.7    
   496.93     242.2    
   500.44     259.9    
   503.95     289.5    
   507.46     329.8    
   510.97     366.6    
   514.48     377.0    
   517.99     365.3    
   521.50     357.1    
   525.01     365.5    
   528.52     393.6    
   532.03     444.6    
   535.54     525.7    
   539.05     650.4    
   542.56     838.1    
   546.07     1100.    
   549.58     1383.    
   553.09     1507.    
   556.60     1365.    
   560.11     1115.    
   563.62     911.2    
   567.13     785.3    
   570.64     721.7    
   574.15     703.4    
   577.66     720.2    
   581.17     767.7    
   584.68     846.4    
   588.19     960.8    
   591.71     1120.    
   595.22     1339.    
   598.73     1647.    
   602.24     2085.    
   605.75     2727.    
   609.26     3688.    
   612.77     5139.    
   616.28     7235.    
   619.79     9729.    
   623.30    0.1127E+05
   626.81    0.1039E+05
   630.32     8015.    
   633.83     5772.    
   637.34     4183.    
   640.85     3154.    
   644.36     2504.    
   647.87     2100.    
   651.38     1872.    
   654.89     1802.    
   658.40     1885.    
   661.91     2070.    
   665.42     2158.    
   668.93     1947.    
   672.44     1555.    
   675.95     1195.    
   679.46     934.6    
   682.97     757.1    
   686.48     636.6    
   689.99     550.9    
   693.50     485.5    
   697.01     436.4    
   700.52     404.7    
   704.03     391.5    
   707.54     398.9    
   711.05     428.1    
   714.56     467.4    
   718.07     477.6    
   721.58     430.1    
   725.09     356.4    
   728.60     292.8    
   732.11     247.5    
   735.62     217.1    
   739.13     197.3    
   742.64     185.5    
   746.15     181.0    
   749.66     183.0    
   753.17     186.1    
   756.68     178.9    
   760.19     159.2    
   763.70     137.4    
   767.21     119.7    
   770.72     106.5    
   774.23     96.55    
   777.75     88.76    
   781.26     82.47    
   784.77     77.22    
   788.28     72.73    
   791.79     68.81    
   795.30     65.35    
   798.81     62.24    
   802.32     59.43    
   805.83     56.87    
   809.34     54.53    
   812.85     52.37    
   816.36     50.36    
   819.87     48.51    
   823.38     46.77    
   826.89     45.15    
   830.40     43.64    
   833.91     42.21    
   837.42     40.87    
   840.93     39.61    
   844.44     38.43    
   847.95     37.31    
   851.46     36.25    
   854.97     35.25    
   858.48     34.31    
   861.99     33.42    
   865.50     32.58    
   869.01     31.79    
   872.52     31.06    
   876.03     30.38    
   879.54     29.76    
   883.05     29.20    
   886.56     28.72    
   890.07     28.35    
   893.58     28.10    
   897.09     28.06    
   900.60     28.30    
   904.11     28.97    
   907.62     30.19    
   911.13     31.70    
   914.64     32.33    
   918.15     30.99    
   921.66     28.57    
   925.17     26.34    
   928.68     24.65    
   932.19     23.40    
   935.70     22.46    
   939.21     21.70    
   942.72     21.08    
   946.23     20.54    
   949.74     20.06    
   953.25     19.64    
   956.76     19.25    
   960.28     18.88    
   963.79     18.55    
   967.30     18.23    
   970.81     17.93    
   974.32     17.65    
   977.83     17.39    
   981.34     17.13    
   984.85     16.89    
   988.36     16.67    
   991.87     16.45    
   995.38     16.25    
   998.89     16.05    
  1002.40     15.87    
  1005.91     15.70    
  1009.42     15.53    
  1012.93     15.39    
  1016.44     15.25    
  1019.95     15.12    
  1023.46     15.01    
  1026.97     14.92    
  1030.48     14.84    
  1033.99     14.78    
  1037.50     14.75    
  1041.01     14.75    
  1044.52     14.79    
  1048.03     14.88    
  1051.54     15.05    
  1055.05     15.34    
  1058.56     15.79    
  1062.07     16.51    
  1065.58     17.63    
  1069.09     19.33    
  1072.60     21.56    
  1076.11     23.45    
  1079.62     23.37    
  1083.13     21.38    
  1086.64     19.12    
  1090.15     17.42    
  1093.66     16.28    
  1097.17     15.55    
  1100.68     15.08    
  1104.19     14.79    
  1107.70     14.61    
  1111.21     14.52    
  1114.72     14.50    
  1118.23     14.53    
  1121.74     14.62    
  1125.25     14.75    
  1128.76     14.92    
  1132.27     15.14    
  1135.78     15.41    
  1139.29     15.73    
  1142.80     16.11    
  1146.32     16.55    
  1149.83     17.07    
  1153.34     17.68    
  1156.85     18.39    
  1160.36     19.22    
  1163.87     20.19    
  1167.38     21.34    
  1170.89     22.70    
  1174.40     24.32    
  1177.91     26.28    
  1181.42     28.66    
  1184.93     31.57    
  1188.44     35.20    
  1191.95     39.77    
  1195.46     45.64    
  1198.97     53.29    
  1202.48     63.52    
  1205.99     77.52    
  1209.50     97.22    
  1213.01     125.8    
  1216.52     168.3    
  1220.03     232.4    
  1223.54     325.9    
  1227.05     441.2    
  1230.56     521.8    
  1234.07     493.6    
  1237.58     385.7    
  1241.09     277.4    
  1244.60     198.5    
  1248.11     145.7    
  1251.62     110.6    
  1255.13     86.66    
  1258.64     69.93    
  1262.15     57.87    
  1265.66     48.94    
  1269.17     42.17    
  1272.68     36.93    
  1276.19     32.80    
  1279.70     29.49    
  1283.21     26.81    
  1286.72     24.61    
  1290.23     22.78    
  1293.74     21.25    
  1297.25     19.96    
  1300.76     18.87    
  1304.27     17.93    
  1307.78     17.13    
  1311.29     16.45    
  1314.80     15.86    
  1318.31     15.36    
  1321.82     14.93    
  1325.33     14.57    
  1328.84     14.26    
  1332.36     14.02    
  1335.87     13.83    
  1339.38     13.69    
  1342.89     13.62    
  1346.40     13.61    
  1349.91     13.68    
  1353.42     13.87    
  1356.93     14.22    
  1360.44     14.79    
  1363.95     15.66    
  1367.46     16.78    
  1370.97     17.65    
  1374.48     17.55    
  1377.99     16.69    
  1381.50     15.81    
  1385.01     15.24    
  1388.52     14.97    
  1392.03     14.90    
  1395.54     14.99    
  1399.05     15.20    
  1402.56     15.51    
  1406.07     15.92    
  1409.58     16.42    
  1413.09     17.03    
  1416.60     17.74    
  1420.11     18.59    
  1423.62     19.58    
  1427.13     20.74    
  1430.64     22.11    
  1434.15     23.73    
  1437.66     25.67    
  1441.17     28.00    
  1444.68     30.82    
  1448.19     34.28    
  1451.70     38.58    
  1455.21     44.00    
  1458.72     50.93    
  1462.23     60.00    
  1465.74     72.11    
  1469.25     88.69    
  1472.76     112.0    
  1476.27     145.9    
  1479.78     196.4    
  1483.29     272.5    
  1486.80     383.0    
  1490.31     517.0    
  1493.82     605.4    
  1497.33     565.4    
  1500.84     438.1    
  1504.35     314.1    
  1507.86     224.4    
  1511.37     164.5    
  1514.88     124.7    
  1518.40     97.60    
  1521.91     78.58    
  1525.42     64.87    
  1528.93     54.71    
  1532.44     47.01    
  1535.95     41.05    
  1539.46     36.36    
  1542.97     32.61    
  1546.48     29.57    
  1549.99     27.08    
  1553.50     25.02    
  1557.01     23.30    
  1560.52     21.86    
  1564.03     20.63    
  1567.54     19.59    
  1571.05     18.70    
  1574.56     17.94    
  1578.07     17.29    
  1581.58     16.73    
  1585.09     16.24    
  1588.60     15.83    
  1592.11     15.48    
  1595.62     15.18    
  1599.13     14.93    
  1602.64     14.72    
  1606.15     14.55    
  1609.66     14.41    
  1613.17     14.31    
  1616.68     14.24    
  1620.19     14.19    
  1623.70     14.18    
  1627.21     14.18    
  1630.72     14.21    
  1634.23     14.27    
  1637.74     14.35    
  1641.25     14.45    
  1644.76     14.57    
  1648.27     14.71    
  1651.78     14.88    
  1655.29     15.07    
  1658.80     15.28    
  1662.31     15.52    
  1665.82     15.79    
  1669.33     16.08    
  1672.84     16.39    
  1676.35     16.74    
  1679.86     17.12    
  1683.37     17.53    
  1686.88     17.98    
  1690.39     18.46    
  1693.90     18.99    
  1697.41     19.56    
  1700.92     20.18    
  1704.44     20.86    
  1707.95     21.59    
  1711.46     22.39    
  1714.97     23.26    
  1718.48     24.21    
  1721.99     25.25    
  1725.50     26.39    
  1729.01     27.65    
  1732.52     29.04    
  1736.03     30.57    
  1739.54     32.28    
  1743.05     34.17    
  1746.56     36.30    
  1750.07     38.69    
  1753.58     41.39    
  1757.09     44.46    
  1760.60     47.97    
  1764.11     52.01    
  1767.62     56.70    
  1771.13     62.18    
  1774.64     68.66    
  1778.15     76.38    
  1781.66     85.71    
  1785.17     97.12    
  1788.68     111.3    
  1792.19     129.2    
  1795.70     152.3    
  1799.21     182.6    
  1802.72     223.7    
  1806.23     280.7    
  1809.74     362.4    
  1813.25     482.8    
  1816.76     663.7    
  1820.27     930.3    
  1823.78     1276.    
  1827.29     1565.    
  1830.80     1553.    
  1834.31     1256.    
  1837.82     920.7    
  1841.33     668.1    
  1844.84     500.2    
  1848.35     391.7    
  1851.86     321.6    
  1855.37     276.8    
  1858.88     249.6    
  1862.39     235.5    
  1865.90     232.5    
  1869.41     240.1    
  1872.92     259.4    
  1876.43     293.4    
  1879.94     347.6    
  1883.45     431.8    
  1886.97     562.2    
  1890.48     761.9    
  1893.99     1049.    
  1897.50     1375.    
  1901.01     1541.    
  1904.52     1382.    
  1908.03     1054.    
  1911.54     763.3    
  1915.05     559.4    
  1918.56     425.7    
  1922.07     339.3    
  1925.58     284.1    
  1929.09     251.2    
  1932.60     236.1    
  1936.11     237.6    
  1939.62     253.9    
  1943.13     273.4    
  1946.64     271.0    
  1950.15     238.9    
  1953.66     200.2    
  1957.17     170.7    
  1960.68     152.4    
  1964.19     143.1    
  1967.70     141.3    
  1971.21     146.7    
  1974.72     160.4    
  1978.23     184.7    
  1981.74     221.2    
  1985.25     262.9    
  1988.76     287.7    
  1992.27     285.1    
  1995.78     277.6    
  1999.29     279.3    
  2002.80     277.1    
  2006.31     258.7    
  2009.82     237.2    
  2013.33     226.7    
  2016.84     231.0    
  2020.35     251.0    
  2023.86     288.9    
  2027.37     351.0    
  2030.88     447.9    
  2034.39     591.7    
  2037.90     776.2    
  2041.41     926.3    
  2044.92     922.6    
  2048.43     789.4    
  2051.94     652.5    
  2055.45     570.0    
  2058.96     544.9    
  2062.47     572.4    
  2065.98     655.2    
  2069.49     808.0    
  2073.01     1059.    
  2076.52     1440.    
  2080.03     1929.    
  2083.54     2313.    
  2087.05     2273.    
  2090.56     1856.    
  2094.07     1386.    
  2097.58     1033.    
  2101.09     809.9    
  2104.60     688.8    
  2108.11     647.0    
  2111.62     667.4    
  2115.13     709.4    
  2118.64     691.5    
  2122.15     582.6    
  2125.66     448.9    
  2129.17     340.9    
  2132.68     264.5    
  2136.19     211.3    
  2139.70     173.5    
  2143.21     145.7    
  2146.72     124.8    
  2150.23     108.5    
  2153.74     95.49    
  2157.25     84.96    
  2160.76     76.28    
  2164.27     69.00    
  2167.78     62.83    
  2171.29     57.54    
  2174.80     52.97    
  2178.31     48.98    
  2181.82     45.47    
  2185.33     42.36    
  2188.84     39.60    
  2192.35     37.13    
  2195.86     34.90    
  2199.37     32.90    
  2202.88     31.08    
  2206.39     29.42    
  2209.90     27.91    
  2213.41     26.52    
  2216.92     25.25    
  2220.43     24.07    
  2223.94     22.99    
  2227.45     21.99    
  2230.96     21.05    
  2234.47     20.19    
  2237.98     19.38    
  2241.49     18.63    
  2245.00     17.92    
  2248.51     17.26    
  2252.02     16.64    
  2255.53     16.05    
  2259.05     15.50    
  2262.56     14.99    
  2266.07     14.50    
  2269.58     14.04    
  2273.09     13.60    
  2276.60     13.18    
  2280.11     12.79    
  2283.62     12.42    
  2287.13     12.06    
  2290.64     11.72    
  2294.15     11.40    
  2297.66     11.09    
  2301.17     10.80    
  2304.68     10.52    
  2308.19     10.26    
  2311.70    10.000    
  2315.21     9.755    
  2318.72     9.521    
  2322.23     9.296    
  2325.74     9.080    
  2329.25     8.873    
  2332.76     8.675    
  2336.27     8.484    
  2339.78     8.300    
  2343.29     8.123    
  2346.80     7.953    
  2350.31     7.789    
  2353.82     7.631    
  2357.33     7.478    
  2360.84     7.331    
  2364.35     7.189    
  2367.86     7.052    
  2371.37     6.919    
  2374.88     6.791    
  2378.39     6.667    
  2381.90     6.547    
  2385.41     6.431    
  2388.92     6.319    
  2392.43     6.210    
  2395.94     6.104    
  2399.45     6.002    
  2402.96     5.903    
  2406.47     5.806    
  2409.98     5.713    
  2413.49     5.622    
  2417.00     5.534    
  2420.51     5.448    
  2424.02     5.365    
  2427.53     5.284    
  2431.04     5.205    
  2434.55     5.129    
  2438.06     5.054    
  2441.57     4.982    
  2445.09     4.911    
  2448.60     4.843    
  2452.11     4.776    
  2455.62     4.711    
  2459.13     4.647    
  2462.64     4.585    
  2466.15     4.525    
  2469.66     4.466    
  2473.17     4.408    
  2476.68     4.352    
  2480.19     4.297    
  2483.70     4.244    
  2487.21     4.192    
  2490.72     4.141    
  2494.23     4.091    
  2497.74     4.043    
  2501.25     3.995    
  2504.76     3.949    
  2508.27     3.903    
  2511.78     3.859    
  2515.29     3.816    
  2518.80     3.773    
  2522.31     3.732    
  2525.82     3.691    
  2529.33     3.651    
  2532.84     3.613    
  2536.35     3.575    
  2539.86     3.537    
  2543.37     3.501    
  2546.88     3.465    
  2550.39     3.430    
  2553.90     3.396    
  2557.41     3.362    
  2560.92     3.330    
  2564.43     3.297    
  2567.94     3.266    
  2571.45     3.235    
  2574.96     3.205    
  2578.47     3.175    
  2581.98     3.146    
  2585.49     3.117    
  2589.00     3.089    
  2592.51     3.062    
  2596.02     3.035    
  2599.53     3.009    
  2603.04     2.983    
  2606.55     2.957    
  2610.06     2.932    
  2613.57     2.908    
  2617.08     2.884    
  2620.59     2.860    
  2624.10     2.837    
  2627.62     2.815    
  2631.13     2.792    
  2634.64     2.771    
  2638.15     2.749    
  2641.66     2.728    
  2645.17     2.707    
  2648.68     2.687    
  2652.19     2.667    
  2655.70     2.648    
  2659.21     2.629    
  2662.72     2.610    
  2666.23     2.591    
  2669.74     2.573    
  2673.25     2.555    
  2676.76     2.538    
  2680.27     2.521    
  2683.78     2.504    
  2687.29     2.487    
  2690.80     2.471    
  2694.31     2.455    
  2697.82     2.439    
  2701.33     2.424    
  2704.84     2.409    
  2708.35     2.394    
  2711.86     2.379    
  2715.37     2.365    
  2718.88     2.351    
  2722.39     2.337    
  2725.90     2.324    
  2729.41     2.311    
  2732.92     2.298    
  2736.43     2.285    
  2739.94     2.273    
  2743.45     2.260    
  2746.96     2.248    
  2750.47     2.237    
  2753.98     2.225    
  2757.49     2.214    
  2761.00     2.203    
  2764.51     2.192    
  2768.02     2.181    
  2771.53     2.171    
  2775.04     2.161    
  2778.55     2.151    
  2782.06     2.141    
  2785.57     2.131    
  2789.08     2.122    
  2792.59     2.113    
  2796.10     2.104    
  2799.61     2.095    
  2803.12     2.087    
  2806.63     2.078    
  2810.14     2.070    
  2813.66     2.062    
  2817.17     2.055    
  2820.68     2.047    
  2824.19     2.040    
  2827.70     2.033    
  2831.21     2.026    
  2834.72     2.019    
  2838.23     2.013    
  2841.74     2.006    
  2845.25     2.000    
  2848.76     1.994    
  2852.27     1.988    
  2855.78     1.983    
  2859.29     1.978    
  2862.80     1.972    
  2866.31     1.967    
  2869.82     1.963    
  2873.33     1.958    
  2876.84     1.954    
  2880.35     1.950    
  2883.86     1.946    
  2887.37     1.942    
  2890.88     1.938    
  2894.39     1.935    
  2897.90     1.932    
  2901.41     1.929    
  2904.92     1.926    
  2908.43     1.924    
  2911.94     1.921    
  2915.45     1.919    
  2918.96     1.918    
  2922.47     1.916    
  2925.98     1.914    
  2929.49     1.913    
  2933.00     1.912    
  2936.51     1.912    
  2940.02     1.911    
  2943.53     1.911    
  2947.04     1.911    
  2950.55     1.911    
  2954.06     1.911    
  2957.57     1.912    
  2961.08     1.913    
  2964.59     1.914    
  2968.10     1.916    
  2971.61     1.918    
  2975.12     1.920    
  2978.63     1.922    
  2982.14     1.925    
  2985.65     1.927    
  2989.16     1.931    
  2992.67     1.934    
  2996.18     1.938    
  2999.70     1.942    
  3003.21     1.947    
  3006.72     1.951    
  3010.23     1.957    
  3013.74     1.962    
  3017.25     1.968    
  3020.76     1.974    
  3024.27     1.981    
  3027.78     1.988    
  3031.29     1.995    
  3034.80     2.003    
  3038.31     2.012    
  3041.82     2.020    
  3045.33     2.030    
  3048.84     2.039    
  3052.35     2.050    
  3055.86     2.060    
  3059.37     2.071    
  3062.88     2.083    
  3066.39     2.095    
  3069.90     2.108    
  3073.41     2.122    
  3076.92     2.136    
  3080.43     2.151    
  3083.94     2.166    
  3087.45     2.182    
  3090.96     2.199    
  3094.47     2.217    
  3097.98     2.235    
  3101.49     2.254    
  3105.00     2.274    
  3108.51     2.295    
  3112.02     2.317    
  3115.53     2.339    
  3119.04     2.363    
  3122.55     2.388    
  3126.06     2.414    
  3129.57     2.441    
  3133.08     2.469    
  3136.59     2.498    
  3140.10     2.529    
  3143.61     2.561    
  3147.12     2.595    
  3150.63     2.630    
  3154.14     2.666    
  3157.65     2.704    
  3161.16     2.744    
  3164.67     2.786    
  3168.18     2.830    
  3171.69     2.875    
  3175.20     2.923    
  3178.71     2.973    
  3182.22     3.026    
  3185.74     3.081    
  3189.25     3.139    
  3192.76     3.199    
  3196.27     3.263    
  3199.78     3.329    
  3203.29     3.399    
  3206.80     3.473    
  3210.31     3.551    
  3213.82     3.632    
  3217.33     3.718    
  3220.84     3.809    
  3224.35     3.904    
  3227.86     4.005    
  3231.37     4.112    
  3234.88     4.224    
  3238.39     4.343    
  3241.90     4.470    
  3245.41     4.604    
  3248.92     4.746    
  3252.43     4.897    
  3255.94     5.057    
  3259.45     5.228    
  3262.96     5.411    
  3266.47     5.605    
  3269.98     5.813    
  3273.49     6.036    
  3277.00     6.274    
  3280.51     6.531    
  3284.02     6.806    
  3287.53     7.102    
  3291.04     7.422    
  3294.55     7.768    
  3298.06     8.142    
  3301.57     8.549    
  3305.08     8.991    
  3308.59     9.473    
  3312.10     9.999    
  3315.61     10.58    
  3319.12     11.21    
  3322.63     11.91    
  3326.14     12.68    
  3329.65     13.53    
  3333.16     14.49    
  3336.67     15.55    
  3340.18     16.75    
  3343.69     18.09    
  3347.20     19.61    
  3350.71     21.35    
  3354.22     23.33    
  3357.73     25.62    
  3361.24     28.27    
  3364.75     31.37    
  3368.26     35.02    
  3371.78     39.35    
  3375.29     44.56    
  3378.80     50.88    
  3382.31     58.65    
  3385.82     68.34    
  3389.33     80.62    
  3392.84     96.48    
  3396.35     117.4    
  3399.86     145.6    
  3403.37     184.7    
  3406.88     240.5    
  3410.39     322.6    
  3413.90     445.9    
  3417.41     630.3    
  3420.92     882.9    
  3424.43     1136.    
  3427.94     1206.    
  3431.45     1023.    
  3434.96     753.1    
  3438.47     531.9    
  3441.98     379.7    
  3445.49     278.7    
  3449.00     210.8    
  3452.51     164.0    
  3456.02     130.8    
  3459.53     106.4    
  3463.04     88.20    
  3466.55     74.22    
  3470.06     63.29    
  3473.57     54.60    
  3477.08     47.58    
  3480.59     41.83    
  3484.10     37.06    
  3487.61     33.08    
  3491.12     29.70    
