
 ------------------------------------------------------------
     normal          Raman Scattering Plot
 ------------------------------------------------------------
 Excitation wavelength  514.50 nm
 Convolution lineshape is lorentzian  
 FWHM   20.00  1/cm
 ------------------------------------------------------------
 ------------------------------------------------------------
 # of frequencies :    60
 ------------------------------------------------------------
 #  freq [ 1/cm]  S [Ang**4/amu]
 ------------------------------------------------------------
   1    11.53    50212.9297
   2    28.11   116810.7912
   3    28.11       81.0632
   4    54.23     4263.9682
   5    54.45     1254.5706
   6    88.83      687.9687
   7    88.84    33186.5268
   8   130.18   310563.8459
   9   130.33      576.4855
  10   177.32     3577.5038
  11   177.34      237.8826
  12   200.19    76838.6124
  13   228.09     3622.0029
  14   228.17      740.9426
  15   280.54     1095.4335
  16   280.58      207.3748
  17   328.29    46149.8274
  18   328.31      737.3418
  19   387.75    41849.2531
  20   398.67    24935.5697
  21   398.72     3954.7284
  22   442.10      397.4598
  23   442.16    73382.8562
  24   484.12      810.2632
  25   484.13     1279.8237
  26   525.75       20.2370
  27   525.75      237.6543
  28   566.80      294.4388
  29   566.82    21587.1375
  30   578.20       78.0476
  31   604.34     2169.3150
  32   604.37    98938.9859
  33   635.21      178.2997
  34   635.22    25489.6750
  35   658.23    37580.8497
  36   658.32      192.5697
  37   676.28    94873.4708
  38   676.30     1821.8762
  39   697.05    70304.5392
  40   697.08      441.9590
  41   733.22     5667.8825
  42   733.24      221.1036
  43   770.53     7614.0627
  44   951.18    59469.1719
  45  1123.26     6427.6561
  46  1285.84     2186.1485
  47  1436.13     4174.9346
  48  1565.62     7772.7995
  49  1911.78  1664609.6990
  50  1955.90    16684.0288
  51  2003.43   172035.2921
  52  2055.02    16747.3863
  53  2085.44    20525.0827
  54  2112.13    30425.8725
  55  2164.64    11863.1579
  56  2169.54   306401.9239
  57  2193.63    51512.8156
  58  2201.04     5302.0055
  59  3427.99  1683756.2266
  60  3431.33    48789.6289
 ------------------------------------------------------------
   -44.93     8190.    
   -41.38     9228.    
   -37.84    0.1048E+05
   -34.30    0.1200E+05
   -30.75    0.1387E+05
   -27.21    0.1623E+05
   -23.67    0.1923E+05
   -20.12    0.2313E+05
   -16.58    0.2832E+05
   -13.04    0.3541E+05
    -9.49    0.4539E+05
    -5.95    0.5985E+05
    -2.41    0.8137E+05
     1.14    0.1136E+06
     4.68    0.1593E+06
     8.22    0.2108E+06
    11.77    0.2379E+06
    15.31    0.2206E+06
    18.85    0.1865E+06
    22.40    0.1640E+06
    25.94    0.1530E+06
    29.48    0.1364E+06
    33.03    0.1086E+06
    36.57    0.8068E+05
    40.11    0.5965E+05
    43.66    0.4523E+05
    47.20    0.3546E+05
    50.74    0.2871E+05
    54.29    0.2380E+05
    57.83    0.1995E+05
    61.37    0.1689E+05
    64.92    0.1452E+05
    68.46    0.1273E+05
    72.00    0.1141E+05
    75.55    0.1049E+05
    79.09     9947.    
    82.63     9755.    
    86.18     9724.    
    89.72     9386.    
    93.26     8552.    
    96.81     7635.    
   100.35     6962.    
   103.89     6593.    
   107.44     6521.    
   110.98     6772.    
   114.52     7434.    
   118.07     8674.    
   121.61    0.1070E+05
   125.15    0.1343E+05
   128.70    0.1563E+05
   132.24    0.1521E+05
   135.78    0.1242E+05
   139.33     9413.    
   142.87     7149.    
   146.41     5607.    
   149.96     4563.    
   153.50     3838.    
   157.04     3320.    
   160.59     2940.    
   164.13     2657.    
   167.67     2448.    
   171.22     2299.    
   174.76     2195.    
   178.30     2120.    
   181.85     2072.    
   185.39     2078.    
   188.93     2170.    
   192.48     2371.    
   196.02     2646.    
   199.56     2804.    
   203.11     2625.    
   206.65     2228.    
   210.19     1855.    
   213.74     1580.    
   217.28     1392.    
   220.82     1263.    
   224.37     1172.    
   227.91     1097.    
   231.45     1022.    
   235.00     950.1    
   238.54     887.7    
   242.08     835.9    
   245.63     792.4    
   249.17     755.3    
   252.71     722.8    
   256.26     694.2    
   259.80     668.7    
   263.34     646.0    
   266.89     625.9    
   270.43     608.5    
   273.97     593.7    
   277.52     580.8    
   281.06     567.4    
   284.60     552.1    
   288.15     537.2    
   291.69     524.8    
   295.23     515.7    
   298.78     510.1    
   302.32     508.7    
   305.86     513.1    
   309.41     525.5    
   312.95     550.4    
   316.49     594.0    
   320.04     663.7    
   323.58     754.9    
   327.12     821.9    
   330.67     796.7    
   334.21     698.0    
   337.75     597.0    
   341.30     522.2    
   344.84     471.4    
   348.38     437.5    
   351.93     414.7    
   355.47     400.0    
   359.01     391.7    
   362.56     389.4    
   366.10     393.5    
   369.64     406.1    
   373.19     430.5    
   376.73     472.1    
   380.27     536.7    
   383.82     618.6    
   387.36     681.4    
   390.90     687.7    
   394.45     662.4    
   397.99     627.2    
   401.53     566.3    
   405.08     491.8    
   408.62     430.8    
   412.16     390.4    
   415.71     367.6    
   419.25     359.1    
   422.79     363.9    
   426.34     384.1    
   429.88     424.7    
   433.42     492.5    
   436.97     585.7    
   440.51     664.0    
   444.05     654.1    
   447.60     559.9    
   451.14     454.9    
   454.68     375.3    
   458.23     320.9    
   461.77     284.0    
   465.31     258.4    
   468.86     240.2    
   472.40     227.2    
   475.94     217.9    
   479.49     211.4    
   483.03     205.8    
   486.57     199.0    
   490.12     191.2    
   493.66     184.1    
   497.20     178.2    
   500.75     173.4    
   504.29     169.5    
   507.83     166.2    
   511.38     163.5    
   514.92     161.2    
   518.46     159.4    
   522.01     158.0    
   525.55     157.0    
   529.10     156.0    
   532.64     155.5    
   536.18     155.7    
   539.73     156.7    
   543.27     159.1    
   546.81     163.1    
   550.36     169.8    
   553.90     180.3    
   557.44     196.5    
   560.99     218.9    
   564.53     241.2    
   568.07     248.2    
   571.62     236.6    
   575.16     222.2    
   578.70     215.6    
   582.25     219.1    
   585.79     233.7    
   589.33     262.4    
   592.88     310.4    
   596.42     383.6    
   599.96     475.6    
   603.51     539.9    
   607.05     516.4    
   610.59     431.1    
   614.14     349.0    
   617.68     293.4    
   621.22     262.4    
   624.77     251.0    
   628.31     255.3    
   631.85     268.9    
   635.40     276.5    
   638.94     267.7    
   642.48     255.2    
   646.03     254.0    
   649.57     269.6    
   653.11     301.1    
   656.66     336.4    
   660.20     355.3    
   663.74     364.1    
   667.29     390.4    
   670.83     445.2    
   674.37     502.3    
   677.92     505.3    
   681.46     451.4    
   685.00     397.3    
   688.55     376.1    
   692.09     386.8    
   695.63     400.8    
   699.18     375.2    
   702.72     312.8    
   706.26     250.5    
   709.81     204.3    
   713.35     173.0    
   716.89     152.1    
   720.44     138.3    
   723.98     129.7    
   727.52     125.1    
   731.07     122.1    
   734.61     117.2    
   738.15     109.7    
   741.70     102.1    
   745.24     96.17    
   748.78     92.02    
   752.33     89.38    
   755.87     88.15    
   759.41     88.46    
   762.96     90.49    
   766.50     93.65    
   770.04     95.03    
   773.59     91.56    
   777.13     85.14    
   780.67     79.16    
   784.22     74.62    
   787.76     71.29    
   791.30     68.77    
   794.85     66.78    
   798.39     65.14    
   801.93     63.74    
   805.48     62.52    
   809.02     61.44    
   812.56     60.45    
   816.11     59.54    
   819.65     58.70    
   823.19     57.92    
   826.74     57.18    
   830.28     56.49    
   833.82     55.84    
   837.37     55.22    
   840.91     54.63    
   844.45     54.07    
   848.00     53.54    
   851.54     53.04    
   855.08     52.57    
   858.63     52.13    
   862.17     51.71    
   865.71     51.33    
   869.26     50.97    
   872.80     50.66    
   876.34     50.37    
   879.89     50.14    
   883.43     49.95    
   886.97     49.81    
   890.52     49.74    
   894.06     49.75    
   897.60     49.86    
   901.15     50.09    
   904.69     50.47    
   908.23     51.05    
   911.78     51.90    
   915.32     53.10    
   918.86     54.81    
   922.41     57.22    
   925.95     60.69    
   929.49     65.75    
   933.04     73.29    
   936.58     84.77    
   940.12     102.3    
   943.67     127.9    
   947.21     158.4    
   950.75     176.5    
   954.30     164.3    
   957.84     134.0    
   961.38     105.9    
   964.93     85.82    
   968.47     72.43    
   972.01     63.43    
   975.56     57.21    
   979.10     52.75    
   982.64     49.45    
   986.19     46.93    
   989.73     44.95    
   993.27     43.35    
   996.82     42.04    
  1000.36     40.93    
  1003.90     39.98    
  1007.45     39.16    
  1010.99     38.43    
  1014.53     37.78    
  1018.08     37.19    
  1021.62     36.66    
  1025.16     36.17    
  1028.71     35.72    
  1032.25     35.29    
  1035.79     34.90    
  1039.34     34.53    
  1042.88     34.18    
  1046.42     33.85    
  1049.97     33.53    
  1053.51     33.23    
  1057.05     32.95    
  1060.60     32.68    
  1064.14     32.43    
  1067.68     32.19    
  1071.23     31.97    
  1074.77     31.77    
  1078.31     31.59    
  1081.86     31.43    
  1085.40     31.31    
  1088.94     31.23    
  1092.49     31.20    
  1096.03     31.25    
  1099.57     31.41    
  1103.12     31.75    
  1106.66     32.36    
  1110.20     33.39    
  1113.75     35.04    
  1117.29     37.38    
  1120.83     39.67    
  1124.38     40.00    
  1127.92     37.81    
  1131.46     34.92    
  1135.01     32.60    
  1138.55     30.96    
  1142.09     29.82    
  1145.64     28.99    
  1149.18     28.37    
  1152.72     27.88    
  1156.27     27.47    
  1159.81     27.13    
  1163.35     26.82    
  1166.90     26.55    
  1170.44     26.30    
  1173.98     26.07    
  1177.53     25.86    
  1181.07     25.65    
  1184.61     25.46    
  1188.16     25.27    
  1191.70     25.09    
  1195.24     24.92    
  1198.79     24.75    
  1202.33     24.59    
  1205.87     24.43    
  1209.42     24.27    
  1212.96     24.12    
  1216.50     23.97    
  1220.05     23.83    
  1223.59     23.69    
  1227.13     23.55    
  1230.68     23.42    
  1234.22     23.30    
  1237.76     23.17    
  1241.31     23.06    
  1244.85     22.95    
  1248.39     22.85    
  1251.94     22.77    
  1255.48     22.70    
  1259.02     22.65    
  1262.57     22.64    
  1266.11     22.68    
  1269.65     22.81    
  1273.20     23.06    
  1276.74     23.50    
  1280.28     24.12    
  1283.83     24.68    
  1287.37     24.62    
  1290.91     23.88    
  1294.46     23.01    
  1298.00     22.31    
  1301.54     21.80    
  1305.09     21.43    
  1308.63     21.15    
  1312.17     20.92    
  1315.72     20.73    
  1319.26     20.56    
  1322.80     20.41    
  1326.35     20.27    
  1329.89     20.14    
  1333.43     20.02    
  1336.98     19.91    
  1340.52     19.80    
  1344.06     19.69    
  1347.61     19.59    
  1351.15     19.49    
  1354.69     19.39    
  1358.24     19.30    
  1361.78     19.21    
  1365.32     19.12    
  1368.87     19.04    
  1372.41     18.96    
  1375.95     18.88    
  1379.50     18.81    
  1383.04     18.74    
  1386.58     18.68    
  1390.13     18.63    
  1393.67     18.59    
  1397.21     18.56    
  1400.76     18.54    
  1404.30     18.55    
  1407.84     18.59    
  1411.39     18.68    
  1414.93     18.83    
  1418.47     19.10    
  1422.02     19.54    
  1425.56     20.25    
  1429.10     21.30    
  1432.65     22.49    
  1436.19     23.03    
  1439.73     22.31    
  1443.28     20.97    
  1446.82     19.80    
  1450.36     18.96    
  1453.91     18.38    
  1457.45     17.97    
  1460.99     17.68    
  1464.54     17.45    
  1468.08     17.27    
  1471.62     17.13    
  1475.17     17.00    
  1478.71     16.90    
  1482.25     16.81    
  1485.80     16.72    
  1489.34     16.65    
  1492.88     16.58    
  1496.43     16.52    
  1499.97     16.47    
  1503.51     16.43    
  1507.06     16.39    
  1510.60     16.36    
  1514.14     16.34    
  1517.69     16.33    
  1521.23     16.33    
  1524.77     16.35    
  1528.32     16.40    
  1531.86     16.47    
  1535.40     16.59    
  1538.95     16.77    
  1542.49     17.05    
  1546.03     17.47    
  1549.58     18.11    
  1553.12     19.11    
  1556.66     20.61    
  1560.21     22.63    
  1563.75     24.41    
  1567.29     24.43    
  1570.84     22.64    
  1574.38     20.53    
  1577.92     18.92    
  1581.47     17.82    
  1585.01     17.09    
  1588.55     16.58    
  1592.10     16.23    
  1595.64     15.97    
  1599.18     15.77    
  1602.73     15.62    
  1606.27     15.50    
  1609.81     15.40    
  1613.36     15.32    
  1616.90     15.26    
  1620.44     15.20    
  1623.99     15.16    
  1627.53     15.12    
  1631.07     15.09    
  1634.62     15.07    
  1638.16     15.05    
  1641.70     15.04    
  1645.25     15.03    
  1648.79     15.02    
  1652.33     15.02    
  1655.88     15.03    
  1659.42     15.03    
  1662.96     15.05    
  1666.51     15.06    
  1670.05     15.08    
  1673.59     15.11    
  1677.14     15.14    
  1680.68     15.17    
  1684.22     15.21    
  1687.77     15.26    
  1691.31     15.31    
  1694.85     15.36    
  1698.40     15.42    
  1701.94     15.49    
  1705.48     15.57    
  1709.03     15.65    
  1712.57     15.74    
  1716.11     15.84    
  1719.66     15.94    
  1723.20     16.06    
  1726.74     16.18    
  1730.29     16.31    
  1733.83     16.46    
  1737.37     16.62    
  1740.92     16.79    
  1744.46     16.98    
  1748.00     17.18    
  1751.55     17.39    
  1755.09     17.63    
  1758.63     17.88    
  1762.18     18.16    
  1765.72     18.46    
  1769.26     18.78    
  1772.81     19.14    
  1776.35     19.52    
  1779.89     19.94    
  1783.44     20.40    
  1786.98     20.90    
  1790.52     21.45    
  1794.07     22.05    
  1797.61     22.71    
  1801.15     23.44    
  1804.70     24.25    
  1808.24     25.14    
  1811.78     26.13    
  1815.33     27.23    
  1818.87     28.46    
  1822.41     29.85    
  1825.96     31.40    
  1829.50     33.17    
  1833.04     35.17    
  1836.59     37.47    
  1840.13     40.10    
  1843.67     43.15    
  1847.22     46.70    
  1850.76     50.87    
  1854.30     55.80    
  1857.85     61.70    
  1861.39     68.82    
  1864.93     77.53    
  1868.48     88.32    
  1872.02     101.9    
  1875.56     119.2    
  1879.11     141.9    
  1882.65     172.1    
  1886.19     213.5    
  1889.74     271.9    
  1893.28     356.6    
  1896.82     483.0    
  1900.37     674.5    
  1903.91     954.3    
  1907.45     1298.    
  1911.00     1529.    
  1914.54     1431.    
  1918.08     1105.    
  1921.63     788.2    
  1925.17     560.1    
  1928.71     408.8    
  1932.26     308.8    
  1935.80     241.3    
  1939.34     194.7    
  1942.89     162.1    
  1946.43     139.3    
  1949.97     123.6    
  1953.52     112.3    
  1957.06     101.9    
  1960.60     90.93    
  1964.15     81.22    
  1967.69     73.97    
  1971.23     69.16    
  1974.78     66.57    
  1978.32     66.18    
  1981.86     68.32    
  1985.41     73.78    
  1988.95     84.01    
  1992.49     101.3    
  1996.04     127.5    
  1999.58     158.8    
  2003.12     176.3    
  2006.67     161.1    
  2010.21     127.6    
  2013.75     97.05    
  2017.30     75.34    
  2020.84     60.84    
  2024.38     51.14    
  2027.93     44.55    
  2031.47     40.04    
  2035.01     37.03    
  2038.56     35.23    
  2042.10     34.57    
  2045.64     35.13    
  2049.19     36.85    
  2052.73     38.77    
  2056.27     38.65    
  2059.82     35.98    
  2063.36     32.94    
  2066.90     30.99    
  2070.45     30.41    
  2073.99     31.24    
  2077.53     33.52    
  2081.08     36.91    
  2084.62     39.47    
  2088.16     38.84    
  2091.71     36.18    
  2095.25     34.24    
  2098.79     34.19    
  2102.34     36.31    
  2105.88     40.52    
  2109.42     45.32    
  2112.97     46.85    
  2116.51     43.53    
  2120.05     38.84    
  2123.60     35.55    
  2127.14     34.08    
  2130.68     34.19    
  2134.23     35.67    
  2137.77     38.56    
  2141.31     43.13    
  2144.86     49.96    
  2148.40     60.07    
  2151.94     75.21    
  2155.49     98.16    
  2159.03     132.7    
  2162.57     181.2    
  2166.12     233.8    
  2169.66     257.6    
  2173.20     229.6    
  2176.75     178.4    
  2180.29     135.9    
  2183.83     109.5    
  2187.38     96.49    
  2190.92     90.89    
  2194.46     84.18    
  2198.01     72.09    
  2201.55     58.62    
  2205.09     47.18    
  2208.64     38.52    
  2212.18     32.28    
  2215.72     27.78    
  2219.27     24.47    
  2222.81     21.95    
  2226.35     19.99    
  2229.90     18.43    
  2233.44     17.16    
  2236.98     16.11    
  2240.53     15.22    
  2244.07     14.47    
  2247.61     13.82    
  2251.16     13.26    
  2254.70     12.76    
  2258.24     12.33    
  2261.79     11.94    
  2265.33     11.59    
  2268.87     11.28    
  2272.42     10.99    
  2275.96     10.73    
  2279.50     10.49    
  2283.05     10.28    
  2286.59     10.08    
  2290.13     9.889    
  2293.68     9.716    
  2297.22     9.555    
  2300.76     9.405    
  2304.31     9.263    
  2307.85     9.131    
  2311.39     9.006    
  2314.94     8.888    
  2318.48     8.776    
  2322.02     8.670    
  2325.57     8.569    
  2329.11     8.473    
  2332.65     8.382    
  2336.20     8.294    
  2339.74     8.211    
  2343.28     8.131    
  2346.83     8.054    
  2350.37     7.980    
  2353.91     7.909    
  2357.46     7.840    
  2361.00     7.774    
  2364.54     7.710    
  2368.09     7.649    
  2371.63     7.589    
  2375.18     7.531    
  2378.72     7.475    
  2382.26     7.421    
  2385.81     7.368    
  2389.35     7.317    
  2392.89     7.267    
  2396.44     7.218    
  2399.98     7.171    
  2403.52     7.125    
  2407.07     7.080    
  2410.61     7.036    
  2414.15     6.993    
  2417.70     6.951    
  2421.24     6.911    
  2424.78     6.870    
  2428.33     6.831    
  2431.87     6.793    
  2435.41     6.755    
  2438.96     6.719    
  2442.50     6.683    
  2446.04     6.647    
  2449.59     6.612    
  2453.13     6.578    
  2456.67     6.545    
  2460.22     6.512    
  2463.76     6.480    
  2467.30     6.448    
  2470.85     6.417    
  2474.39     6.386    
  2477.93     6.356    
  2481.48     6.326    
  2485.02     6.297    
  2488.56     6.268    
  2492.11     6.239    
  2495.65     6.211    
  2499.19     6.184    
  2502.74     6.157    
  2506.28     6.130    
  2509.82     6.103    
  2513.37     6.077    
  2516.91     6.052    
  2520.45     6.026    
  2524.00     6.001    
  2527.54     5.976    
  2531.08     5.952    
  2534.63     5.928    
  2538.17     5.904    
  2541.71     5.881    
  2545.26     5.857    
  2548.80     5.834    
  2552.34     5.812    
  2555.89     5.789    
  2559.43     5.767    
  2562.97     5.745    
  2566.52     5.724    
  2570.06     5.702    
  2573.60     5.681    
  2577.15     5.660    
  2580.69     5.639    
  2584.23     5.619    
  2587.78     5.598    
  2591.32     5.578    
  2594.86     5.558    
  2598.41     5.539    
  2601.95     5.519    
  2605.49     5.500    
  2609.04     5.481    
  2612.58     5.462    
  2616.12     5.443    
  2619.67     5.425    
  2623.21     5.406    
  2626.75     5.388    
  2630.30     5.370    
  2633.84     5.352    
  2637.38     5.335    
  2640.93     5.317    
  2644.47     5.300    
  2648.01     5.282    
  2651.56     5.265    
  2655.10     5.249    
  2658.64     5.232    
  2662.19     5.215    
  2665.73     5.199    
  2669.27     5.183    
  2672.82     5.166    
  2676.36     5.150    
  2679.90     5.135    
  2683.45     5.119    
  2686.99     5.103    
  2690.53     5.088    
  2694.08     5.072    
  2697.62     5.057    
  2701.16     5.042    
  2704.71     5.027    
  2708.25     5.013    
  2711.79     4.998    
  2715.34     4.983    
  2718.88     4.969    
  2722.42     4.955    
  2725.97     4.941    
  2729.51     4.926    
  2733.05     4.913    
  2736.60     4.899    
  2740.14     4.885    
  2743.68     4.872    
  2747.23     4.858    
  2750.77     4.845    
  2754.31     4.832    
  2757.86     4.818    
  2761.40     4.805    
  2764.94     4.793    
  2768.49     4.780    
  2772.03     4.767    
  2775.57     4.755    
  2779.12     4.742    
  2782.66     4.730    
  2786.20     4.718    
  2789.75     4.706    
  2793.29     4.694    
  2796.83     4.682    
  2800.38     4.670    
  2803.92     4.658    
  2807.46     4.647    
  2811.01     4.635    
  2814.55     4.624    
  2818.09     4.613    
  2821.64     4.602    
  2825.18     4.591    
  2828.72     4.580    
  2832.27     4.569    
  2835.81     4.558    
  2839.35     4.548    
  2842.90     4.537    
  2846.44     4.527    
  2849.98     4.517    
  2853.53     4.506    
  2857.07     4.496    
  2860.61     4.486    
  2864.16     4.477    
  2867.70     4.467    
  2871.24     4.457    
  2874.79     4.448    
  2878.33     4.438    
  2881.87     4.429    
  2885.42     4.420    
  2888.96     4.411    
  2892.50     4.402    
  2896.05     4.393    
  2899.59     4.385    
  2903.13     4.376    
  2906.68     4.368    
  2910.22     4.359    
  2913.76     4.351    
  2917.31     4.343    
  2920.85     4.335    
  2924.39     4.327    
  2927.94     4.319    
  2931.48     4.312    
  2935.02     4.304    
  2938.57     4.297    
  2942.11     4.290    
  2945.65     4.283    
  2949.20     4.276    
  2952.74     4.269    
  2956.28     4.263    
  2959.83     4.256    
  2963.37     4.250    
  2966.91     4.244    
  2970.46     4.238    
  2974.00     4.232    
  2977.54     4.226    
  2981.09     4.220    
  2984.63     4.215    
  2988.17     4.210    
  2991.72     4.205    
  2995.26     4.200    
  2998.80     4.195    
  3002.35     4.191    
  3005.89     4.186    
  3009.43     4.182    
  3012.98     4.178    
  3016.52     4.174    
  3020.06     4.171    
  3023.61     4.168    
  3027.15     4.164    
  3030.69     4.162    
  3034.24     4.159    
  3037.78     4.157    
  3041.32     4.154    
  3044.87     4.152    
  3048.41     4.151    
  3051.95     4.149    
  3055.50     4.148    
  3059.04     4.147    
  3062.58     4.147    
  3066.13     4.147    
  3069.67     4.147    
  3073.21     4.147    
  3076.76     4.148    
  3080.30     4.149    
  3083.84     4.150    
  3087.39     4.152    
  3090.93     4.154    
  3094.47     4.157    
  3098.02     4.159    
  3101.56     4.163    
  3105.10     4.167    
  3108.65     4.171    
  3112.19     4.176    
  3115.73     4.181    
  3119.28     4.187    
  3122.82     4.193    
  3126.36     4.200    
  3129.91     4.208    
  3133.45     4.216    
  3136.99     4.225    
  3140.54     4.234    
  3144.08     4.244    
  3147.62     4.255    
  3151.17     4.267    
  3154.71     4.279    
  3158.25     4.293    
  3161.80     4.307    
  3165.34     4.322    
  3168.88     4.338    
  3172.43     4.356    
  3175.97     4.374    
  3179.51     4.394    
  3183.06     4.415    
  3186.60     4.437    
  3190.14     4.460    
  3193.69     4.485    
  3197.23     4.512    
  3200.77     4.540    
  3204.32     4.570    
  3207.86     4.602    
  3211.40     4.636    
  3214.95     4.672    
  3218.49     4.710    
  3222.03     4.751    
  3225.58     4.794    
  3229.12     4.840    
  3232.66     4.889    
  3236.21     4.941    
  3239.75     4.997    
  3243.29     5.056    
  3246.84     5.120    
  3250.38     5.187    
  3253.92     5.259    
  3257.47     5.337    
  3261.01     5.419    
  3264.55     5.508    
  3268.10     5.603    
  3271.64     5.705    
  3275.18     5.815    
  3278.73     5.933    
  3282.27     6.061    
  3285.81     6.199    
  3289.36     6.347    
  3292.90     6.509    
  3296.44     6.684    
  3299.99     6.874    
  3303.53     7.081    
  3307.07     7.307    
  3310.62     7.554    
  3314.16     7.825    
  3317.70     8.124    
  3321.25     8.452    
  3324.79     8.816    
  3328.33     9.219    
  3331.88     9.668    
  3335.42     10.17    
  3338.96     10.73    
  3342.51     11.36    
  3346.05     12.08    
  3349.59     12.89    
  3353.14     13.82    
  3356.68     14.89    
  3360.22     16.13    
  3363.77     17.58    
  3367.31     19.27    
  3370.85     21.28    
  3374.40     23.68    
  3377.94     26.59    
  3381.48     30.15    
  3385.03     34.56    
  3388.57     40.12    
  3392.11     47.25    
  3395.66     56.57    
  3399.20     69.04    
  3402.74     86.16    
  3406.29     110.3    
  3409.83     145.6    
  3413.37     198.3    
  3416.92     278.0    
  3420.46     393.6    
  3424.00     531.7    
  3427.55     616.4    
  3431.09     567.0    
  3434.63     434.3    
  3438.18     308.7    
  3441.72     218.9    
  3445.26     159.2    
  3448.81     119.5    
  3452.35     92.48    
  3455.89     73.52    
  3459.44     59.83    
  3462.98     49.66    
  3466.52     41.94    
  3470.07     35.95    
  3473.61     31.21    
  3477.15     27.41    
  3480.70     24.31    
  3484.24     21.76    
  3487.78     19.63    
  3491.33     17.83    
  3494.87     16.31    
