
 ------------------------------------------------------------
     normal          Raman Scattering Plot
 ------------------------------------------------------------
 Excitation wavelength  514.50 nm
 Convolution lineshape is lorentzian  
 FWHM   20.00  1/cm
 ------------------------------------------------------------
 ------------------------------------------------------------
 # of frequencies :    18
 ------------------------------------------------------------
 #  freq [ 1/cm]  S [Ang**4/amu]
 ------------------------------------------------------------
   1   125.54        0.0003
   2   292.24        1.6107
   3   292.24        1.6097
   4   512.80        0.0001
   5   512.80        0.0000
   6   617.73        2.7360
   7   625.50        7.5332
   8   625.50        7.5270
   9   663.32        0.0000
  10   663.32        0.0000
  11   679.68       22.4100
  12   679.68       22.4064
  13  1177.47        0.0000
  14  1989.40       87.3658
  15  2128.18        0.0005
  16  2211.58      423.2478
  17  3440.05       98.7002
  18  3451.67        0.0005
 ------------------------------------------------------------
    68.99    0.1477E-03
    72.44    0.1508E-03
    75.89    0.1541E-03
    79.34    0.1576E-03
    82.79    0.1612E-03
    86.24    0.1650E-03
    89.69    0.1690E-03
    93.14    0.1732E-03
    96.59    0.1777E-03
   100.04    0.1824E-03
   103.49    0.1876E-03
   106.94    0.1932E-03
   110.39    0.1994E-03
   113.84    0.2066E-03
   117.29    0.2148E-03
   120.74    0.2241E-03
   124.19    0.2329E-03
   127.64    0.2390E-03
   131.08    0.2429E-03
   134.53    0.2468E-03
   137.98    0.2520E-03
   141.43    0.2585E-03
   144.88    0.2660E-03
   148.33    0.2745E-03
   151.78    0.2839E-03
   155.23    0.2940E-03
   158.68    0.3051E-03
   162.13    0.3170E-03
   165.58    0.3299E-03
   169.03    0.3439E-03
   172.48    0.3590E-03
   175.93    0.3755E-03
   179.38    0.3933E-03
   182.83    0.4128E-03
   186.28    0.4341E-03
   189.73    0.4574E-03
   193.18    0.4830E-03
   196.63    0.5114E-03
   200.08    0.5427E-03
   203.53    0.5776E-03
   206.98    0.6166E-03
   210.42    0.6604E-03
   213.87    0.7097E-03
   217.32    0.7656E-03
   220.77    0.8295E-03
   224.22    0.9027E-03
   227.67    0.9874E-03
   231.12    0.1086E-02
   234.57    0.1202E-02
   238.02    0.1339E-02
   241.47    0.1504E-02
   244.92    0.1703E-02
   248.37    0.1948E-02
   251.82    0.2253E-02
   255.27    0.2638E-02
   258.72    0.3135E-02
   262.17    0.3790E-02
   265.62    0.4671E-02
   269.07    0.5891E-02
   272.52    0.7628E-02
   275.97    0.1017E-01
   279.42    0.1397E-01
   282.87    0.1960E-01
   286.32    0.2720E-01
   289.77    0.3457E-01
   293.21    0.3633E-01
   296.66    0.3070E-01
   300.11    0.2271E-01
   303.56    0.1618E-01
   307.01    0.1166E-01
   310.46    0.8643E-02
   313.91    0.6607E-02
   317.36    0.5197E-02
   320.81    0.4192E-02
   324.26    0.3457E-02
   327.71    0.2905E-02
   331.16    0.2483E-02
   334.61    0.2153E-02
   338.06    0.1891E-02
   341.51    0.1681E-02
   344.96    0.1510E-02
   348.41    0.1369E-02
   351.86    0.1252E-02
   355.31    0.1153E-02
   358.76    0.1071E-02
   362.21    0.1001E-02
   365.66    0.9413E-03
   369.11    0.8904E-03
   372.56    0.8468E-03
   376.00    0.8094E-03
   379.45    0.7774E-03
   382.90    0.7499E-03
   386.35    0.7265E-03
   389.80    0.7066E-03
   393.25    0.6897E-03
   396.70    0.6757E-03
   400.15    0.6641E-03
   403.60    0.6548E-03
   407.05    0.6475E-03
   410.50    0.6421E-03
   413.95    0.6385E-03
   417.40    0.6365E-03
   420.85    0.6361E-03
   424.30    0.6372E-03
   427.75    0.6396E-03
   431.20    0.6434E-03
   434.65    0.6486E-03
   438.10    0.6551E-03
   441.55    0.6629E-03
   445.00    0.6720E-03
   448.45    0.6824E-03
   451.90    0.6942E-03
   455.34    0.7073E-03
   458.79    0.7219E-03
   462.24    0.7379E-03
   465.69    0.7555E-03
   469.14    0.7746E-03
   472.59    0.7954E-03
   476.04    0.8181E-03
   479.49    0.8426E-03
   482.94    0.8691E-03
   486.39    0.8978E-03
   489.84    0.9289E-03
   493.29    0.9625E-03
   496.74    0.9989E-03
   500.19    0.1038E-02
   503.64    0.1081E-02
   507.09    0.1127E-02
   510.54    0.1178E-02
   513.99    0.1232E-02
   517.44    0.1292E-02
   520.89    0.1357E-02
   524.34    0.1428E-02
   527.79    0.1506E-02
   531.24    0.1591E-02
   534.69    0.1686E-02
   538.13    0.1791E-02
   541.58    0.1907E-02
   545.03    0.2037E-02
   548.48    0.2182E-02
   551.93    0.2346E-02
   555.38    0.2531E-02
   558.83    0.2742E-02
   562.28    0.2984E-02
   565.73    0.3264E-02
   569.18    0.3590E-02
   572.63    0.3974E-02
   576.08    0.4430E-02
   579.53    0.4980E-02
   582.98    0.5651E-02
   586.43    0.6485E-02
   589.88    0.7540E-02
   593.33    0.8904E-02
   596.78    0.1071E-01
   600.23    0.1318E-01
   603.68    0.1663E-01
   607.13    0.2159E-01
   610.58    0.2876E-01
   614.03    0.3866E-01
   617.48    0.5077E-01
   620.92    0.6313E-01
   624.37    0.7082E-01
   627.82    0.6704E-01
   631.27    0.5457E-01
   634.72    0.4214E-01
   638.17    0.3343E-01
   641.62    0.2824E-01
   645.07    0.2569E-01
   648.52    0.2517E-01
   651.97    0.2644E-01
   655.42    0.2960E-01
   658.87    0.3510E-01
   662.32    0.4392E-01
   665.77    0.5766E-01
   669.22    0.7869E-01
   672.67    0.1087    
   676.12    0.1425    
   679.57    0.1600    
   683.02    0.1439    
   686.47    0.1098    
   689.92    0.7866E-01
   693.37    0.5638E-01
   696.82    0.4142E-01
   700.26    0.3135E-01
   703.71    0.2441E-01
   707.16    0.1949E-01
   710.61    0.1589E-01
   714.06    0.1320E-01
   717.51    0.1114E-01
   720.96    0.9523E-02
   724.41    0.8238E-02
   727.86    0.7199E-02
   731.31    0.6347E-02
   734.76    0.5640E-02
   738.21    0.5047E-02
   741.66    0.4544E-02
   745.11    0.4114E-02
   748.56    0.3744E-02
   752.01    0.3422E-02
   755.46    0.3141E-02
   758.91    0.2894E-02
   762.36    0.2676E-02
   765.81    0.2482E-02
   769.26    0.2309E-02
   772.71    0.2154E-02
   776.16    0.2015E-02
   779.61    0.1889E-02
   783.05    0.1775E-02
   786.50    0.1671E-02
   789.95    0.1576E-02
   793.40    0.1490E-02
   796.85    0.1410E-02
   800.30    0.1337E-02
   803.75    0.1270E-02
   807.20    0.1208E-02
   810.65    0.1150E-02
   814.10    0.1097E-02
   817.55    0.1047E-02
   821.00    0.1001E-02
   824.45    0.9583E-03
   827.90    0.9181E-03
   831.35    0.8805E-03
   834.80    0.8453E-03
   838.25    0.8122E-03
   841.70    0.7812E-03
   845.15    0.7520E-03
   848.60    0.7245E-03
   852.05    0.6985E-03
   855.50    0.6740E-03
   858.95    0.6509E-03
   862.39    0.6290E-03
   865.84    0.6083E-03
   869.29    0.5886E-03
   872.74    0.5699E-03
   876.19    0.5522E-03
   879.64    0.5354E-03
   883.09    0.5194E-03
   886.54    0.5041E-03
   889.99    0.4896E-03
   893.44    0.4757E-03
   896.89    0.4625E-03
   900.34    0.4498E-03
   903.79    0.4378E-03
   907.24    0.4262E-03
   910.69    0.4152E-03
   914.14    0.4046E-03
   917.59    0.3945E-03
   921.04    0.3848E-03
   924.49    0.3754E-03
   927.94    0.3665E-03
   931.39    0.3579E-03
   934.84    0.3497E-03
   938.29    0.3418E-03
   941.74    0.3341E-03
   945.18    0.3268E-03
   948.63    0.3197E-03
   952.08    0.3130E-03
   955.53    0.3064E-03
   958.98    0.3001E-03
   962.43    0.2940E-03
   965.88    0.2882E-03
   969.33    0.2825E-03
   972.78    0.2770E-03
   976.23    0.2718E-03
   979.68    0.2667E-03
   983.13    0.2618E-03
   986.58    0.2570E-03
   990.03    0.2524E-03
   993.48    0.2480E-03
   996.93    0.2437E-03
  1000.38    0.2395E-03
  1003.83    0.2355E-03
  1007.28    0.2316E-03
  1010.73    0.2278E-03
  1014.18    0.2242E-03
  1017.63    0.2206E-03
  1021.08    0.2172E-03
  1024.53    0.2139E-03
  1027.97    0.2106E-03
  1031.42    0.2075E-03
  1034.87    0.2045E-03
  1038.32    0.2015E-03
  1041.77    0.1987E-03
  1045.22    0.1959E-03
  1048.67    0.1932E-03
  1052.12    0.1906E-03
  1055.57    0.1881E-03
  1059.02    0.1856E-03
  1062.47    0.1832E-03
  1065.92    0.1809E-03
  1069.37    0.1786E-03
  1072.82    0.1765E-03
  1076.27    0.1743E-03
  1079.72    0.1723E-03
  1083.17    0.1702E-03
  1086.62    0.1683E-03
  1090.07    0.1664E-03
  1093.52    0.1645E-03
  1096.97    0.1628E-03
  1100.42    0.1610E-03
  1103.87    0.1593E-03
  1107.31    0.1577E-03
  1110.76    0.1561E-03
  1114.21    0.1545E-03
  1117.66    0.1530E-03
  1121.11    0.1515E-03
  1124.56    0.1501E-03
  1128.01    0.1487E-03
  1131.46    0.1473E-03
  1134.91    0.1460E-03
  1138.36    0.1447E-03
  1141.81    0.1435E-03
  1145.26    0.1423E-03
  1148.71    0.1411E-03
  1152.16    0.1400E-03
  1155.61    0.1389E-03
  1159.06    0.1378E-03
  1162.51    0.1367E-03
  1165.96    0.1357E-03
  1169.41    0.1347E-03
  1172.86    0.1338E-03
  1176.31    0.1328E-03
  1179.76    0.1319E-03
  1183.21    0.1311E-03
  1186.66    0.1302E-03
  1190.10    0.1294E-03
  1193.55    0.1286E-03
  1197.00    0.1278E-03
  1200.45    0.1271E-03
  1203.90    0.1263E-03
  1207.35    0.1256E-03
  1210.80    0.1250E-03
  1214.25    0.1243E-03
  1217.70    0.1237E-03
  1221.15    0.1231E-03
  1224.60    0.1225E-03
  1228.05    0.1219E-03
  1231.50    0.1213E-03
  1234.95    0.1208E-03
  1238.40    0.1203E-03
  1241.85    0.1198E-03
  1245.30    0.1193E-03
  1248.75    0.1189E-03
  1252.20    0.1184E-03
  1255.65    0.1180E-03
  1259.10    0.1176E-03
  1262.55    0.1172E-03
  1266.00    0.1169E-03
  1269.45    0.1165E-03
  1272.89    0.1162E-03
  1276.34    0.1159E-03
  1279.79    0.1156E-03
  1283.24    0.1153E-03
  1286.69    0.1151E-03
  1290.14    0.1148E-03
  1293.59    0.1146E-03
  1297.04    0.1144E-03
  1300.49    0.1142E-03
  1303.94    0.1140E-03
  1307.39    0.1138E-03
  1310.84    0.1137E-03
  1314.29    0.1136E-03
  1317.74    0.1134E-03
  1321.19    0.1133E-03
  1324.64    0.1133E-03
  1328.09    0.1132E-03
  1331.54    0.1131E-03
  1334.99    0.1131E-03
  1338.44    0.1131E-03
  1341.89    0.1131E-03
  1345.34    0.1131E-03
  1348.79    0.1131E-03
  1352.23    0.1131E-03
  1355.68    0.1132E-03
  1359.13    0.1132E-03
  1362.58    0.1133E-03
  1366.03    0.1134E-03
  1369.48    0.1135E-03
  1372.93    0.1136E-03
  1376.38    0.1138E-03
  1379.83    0.1139E-03
  1383.28    0.1141E-03
  1386.73    0.1143E-03
  1390.18    0.1145E-03
  1393.63    0.1147E-03
  1397.08    0.1149E-03
  1400.53    0.1151E-03
  1403.98    0.1154E-03
  1407.43    0.1157E-03
  1410.88    0.1160E-03
  1414.33    0.1163E-03
  1417.78    0.1166E-03
  1421.23    0.1169E-03
  1424.68    0.1173E-03
  1428.13    0.1177E-03
  1431.58    0.1180E-03
  1435.02    0.1184E-03
  1438.47    0.1189E-03
  1441.92    0.1193E-03
  1445.37    0.1198E-03
  1448.82    0.1202E-03
  1452.27    0.1207E-03
  1455.72    0.1212E-03
  1459.17    0.1217E-03
  1462.62    0.1223E-03
  1466.07    0.1228E-03
  1469.52    0.1234E-03
  1472.97    0.1240E-03
  1476.42    0.1246E-03
  1479.87    0.1253E-03
  1483.32    0.1259E-03
  1486.77    0.1266E-03
  1490.22    0.1273E-03
  1493.67    0.1280E-03
  1497.12    0.1287E-03
  1500.57    0.1295E-03
  1504.02    0.1303E-03
  1507.47    0.1311E-03
  1510.92    0.1319E-03
  1514.37    0.1327E-03
  1517.81    0.1336E-03
  1521.26    0.1345E-03
  1524.71    0.1354E-03
  1528.16    0.1364E-03
  1531.61    0.1373E-03
  1535.06    0.1383E-03
  1538.51    0.1393E-03
  1541.96    0.1404E-03
  1545.41    0.1415E-03
  1548.86    0.1426E-03
  1552.31    0.1437E-03
  1555.76    0.1448E-03
  1559.21    0.1460E-03
  1562.66    0.1473E-03
  1566.11    0.1485E-03
  1569.56    0.1498E-03
  1573.01    0.1511E-03
  1576.46    0.1525E-03
  1579.91    0.1538E-03
  1583.36    0.1553E-03
  1586.81    0.1567E-03
  1590.26    0.1582E-03
  1593.71    0.1598E-03
  1597.15    0.1613E-03
  1600.60    0.1629E-03
  1604.05    0.1646E-03
  1607.50    0.1663E-03
  1610.95    0.1680E-03
  1614.40    0.1698E-03
  1617.85    0.1717E-03
  1621.30    0.1735E-03
  1624.75    0.1755E-03
  1628.20    0.1775E-03
  1631.65    0.1795E-03
  1635.10    0.1816E-03
  1638.55    0.1837E-03
  1642.00    0.1860E-03
  1645.45    0.1882E-03
  1648.90    0.1905E-03
  1652.35    0.1929E-03
  1655.80    0.1954E-03
  1659.25    0.1979E-03
  1662.70    0.2005E-03
  1666.15    0.2032E-03
  1669.60    0.2060E-03
  1673.05    0.2088E-03
  1676.50    0.2117E-03
  1679.94    0.2147E-03
  1683.39    0.2178E-03
  1686.84    0.2209E-03
  1690.29    0.2242E-03
  1693.74    0.2276E-03
  1697.19    0.2311E-03
  1700.64    0.2346E-03
  1704.09    0.2383E-03
  1707.54    0.2421E-03
  1710.99    0.2461E-03
  1714.44    0.2501E-03
  1717.89    0.2543E-03
  1721.34    0.2586E-03
  1724.79    0.2631E-03
  1728.24    0.2677E-03
  1731.69    0.2725E-03
  1735.14    0.2774E-03
  1738.59    0.2826E-03
  1742.04    0.2879E-03
  1745.49    0.2934E-03
  1748.94    0.2990E-03
  1752.39    0.3049E-03
  1755.84    0.3111E-03
  1759.29    0.3174E-03
  1762.73    0.3240E-03
  1766.18    0.3309E-03
  1769.63    0.3380E-03
  1773.08    0.3454E-03
  1776.53    0.3532E-03
  1779.98    0.3612E-03
  1783.43    0.3696E-03
  1786.88    0.3784E-03
  1790.33    0.3875E-03
  1793.78    0.3971E-03
  1797.23    0.4071E-03
  1800.68    0.4176E-03
  1804.13    0.4286E-03
  1807.58    0.4401E-03
  1811.03    0.4522E-03
  1814.48    0.4649E-03
  1817.93    0.4782E-03
  1821.38    0.4923E-03
  1824.83    0.5072E-03
  1828.28    0.5228E-03
  1831.73    0.5394E-03
  1835.18    0.5569E-03
  1838.63    0.5755E-03
  1842.07    0.5953E-03
  1845.52    0.6162E-03
  1848.97    0.6386E-03
  1852.42    0.6625E-03
  1855.87    0.6880E-03
  1859.32    0.7153E-03
  1862.77    0.7446E-03
  1866.22    0.7761E-03
  1869.67    0.8100E-03
  1873.12    0.8467E-03
  1876.57    0.8865E-03
  1880.02    0.9297E-03
  1883.47    0.9767E-03
  1886.92    0.1028E-02
  1890.37    0.1085E-02
  1893.82    0.1147E-02
  1897.27    0.1215E-02
  1900.72    0.1291E-02
  1904.17    0.1375E-02
  1907.62    0.1470E-02
  1911.07    0.1576E-02
  1914.52    0.1697E-02
  1917.97    0.1834E-02
  1921.42    0.1990E-02
  1924.86    0.2171E-02
  1928.31    0.2381E-02
  1931.76    0.2626E-02
  1935.21    0.2917E-02
  1938.66    0.3264E-02
  1942.11    0.3684E-02
  1945.56    0.4199E-02
  1949.01    0.4838E-02
  1952.46    0.5646E-02
  1955.91    0.6685E-02
  1959.36    0.8051E-02
  1962.81    0.9891E-02
  1966.26    0.1243E-01
  1969.71    0.1605E-01
  1973.16    0.2135E-01
  1976.61    0.2926E-01
  1980.06    0.4097E-01
  1983.51    0.5674E-01
  1986.96    0.7199E-01
  1990.41    0.7553E-01
  1993.86    0.6379E-01
  1997.31    0.4725E-01
  2000.76    0.3376E-01
  2004.21    0.2444E-01
  2007.65    0.1823E-01
  2011.10    0.1404E-01
  2014.55    0.1114E-01
  2018.00    0.9088E-02
  2021.45    0.7589E-02
  2024.90    0.6471E-02
  2028.35    0.5622E-02
  2031.80    0.4966E-02
  2035.25    0.4453E-02
  2038.70    0.4048E-02
  2042.15    0.3726E-02
  2045.60    0.3469E-02
  2049.05    0.3263E-02
  2052.50    0.3100E-02
  2055.95    0.2972E-02
  2059.40    0.2874E-02
  2062.85    0.2800E-02
  2066.30    0.2749E-02
  2069.75    0.2717E-02
  2073.20    0.2703E-02
  2076.65    0.2706E-02
  2080.10    0.2724E-02
  2083.55    0.2757E-02
  2086.99    0.2805E-02
  2090.44    0.2867E-02
  2093.89    0.2945E-02
  2097.34    0.3039E-02
  2100.79    0.3149E-02
  2104.24    0.3278E-02
  2107.69    0.3425E-02
  2111.14    0.3594E-02
  2114.59    0.3787E-02
  2118.04    0.4007E-02
  2121.49    0.4256E-02
  2124.94    0.4540E-02
  2128.39    0.4864E-02
  2131.84    0.5233E-02
  2135.29    0.5657E-02
  2138.74    0.6144E-02
  2142.19    0.6707E-02
  2145.64    0.7361E-02
  2149.09    0.8127E-02
  2152.54    0.9028E-02
  2155.99    0.1010E-01
  2159.44    0.1138E-01
  2162.89    0.1294E-01
  2166.34    0.1484E-01
  2169.78    0.1720E-01
  2173.23    0.2018E-01
  2176.68    0.2399E-01
  2180.13    0.2898E-01
  2183.58    0.3565E-01
  2187.03    0.4478E-01
  2190.48    0.5765E-01
  2193.93    0.7631E-01
  2197.38    0.1040    
  2200.83    0.1455    
  2204.28    0.2045    
  2207.73    0.2729    
  2211.18    0.3128    
  2214.63    0.2866    
  2218.08    0.2202    
  2221.53    0.1575    
  2224.98    0.1121    
  2228.43    0.8169E-01
  2231.88    0.6128E-01
  2235.33    0.4729E-01
  2238.78    0.3742E-01
  2242.23    0.3025E-01
  2245.68    0.2492E-01
  2249.12    0.2086E-01
  2252.57    0.1770E-01
  2256.02    0.1520E-01
  2259.47    0.1319E-01
  2262.92    0.1156E-01
  2266.37    0.1020E-01
  2269.82    0.9073E-02
  2273.27    0.8121E-02
  2276.72    0.7312E-02
  2280.17    0.6617E-02
  2283.62    0.6018E-02
  2287.07    0.5496E-02
  2290.52    0.5040E-02
  2293.97    0.4639E-02
  2297.42    0.4284E-02
  2300.87    0.3968E-02
  2304.32    0.3687E-02
  2307.77    0.3434E-02
  2311.22    0.3207E-02
  2314.67    0.3002E-02
  2318.12    0.2816E-02
  2321.57    0.2647E-02
  2325.02    0.2493E-02
  2328.47    0.2353E-02
  2331.91    0.2224E-02
  2335.36    0.2105E-02
  2338.81    0.1996E-02
  2342.26    0.1895E-02
  2345.71    0.1802E-02
  2349.16    0.1715E-02
  2352.61    0.1635E-02
  2356.06    0.1561E-02
  2359.51    0.1491E-02
  2362.96    0.1426E-02
  2366.41    0.1365E-02
  2369.86    0.1309E-02
  2373.31    0.1255E-02
  2376.76    0.1205E-02
  2380.21    0.1158E-02
  2383.66    0.1114E-02
  2387.11    0.1072E-02
  2390.56    0.1033E-02
  2394.01    0.9957E-03
  2397.46    0.9606E-03
  2400.91    0.9273E-03
  2404.36    0.8957E-03
  2407.81    0.8658E-03
  2411.26    0.8373E-03
  2414.70    0.8103E-03
  2418.15    0.7846E-03
  2421.60    0.7602E-03
  2425.05    0.7369E-03
  2428.50    0.7147E-03
  2431.95    0.6935E-03
  2435.40    0.6732E-03
  2438.85    0.6539E-03
  2442.30    0.6354E-03
  2445.75    0.6177E-03
  2449.20    0.6008E-03
  2452.65    0.5845E-03
  2456.10    0.5690E-03
  2459.55    0.5540E-03
  2463.00    0.5397E-03
  2466.45    0.5259E-03
  2469.90    0.5127E-03
  2473.35    0.5000E-03
  2476.80    0.4877E-03
  2480.25    0.4760E-03
  2483.70    0.4646E-03
  2487.15    0.4537E-03
  2490.60    0.4432E-03
  2494.04    0.4331E-03
  2497.49    0.4233E-03
  2500.94    0.4138E-03
  2504.39    0.4047E-03
  2507.84    0.3959E-03
  2511.29    0.3874E-03
  2514.74    0.3791E-03
  2518.19    0.3712E-03
  2521.64    0.3635E-03
  2525.09    0.3560E-03
  2528.54    0.3488E-03
  2531.99    0.3418E-03
  2535.44    0.3351E-03
  2538.89    0.3285E-03
  2542.34    0.3222E-03
  2545.79    0.3160E-03
  2549.24    0.3100E-03
  2552.69    0.3042E-03
  2556.14    0.2986E-03
  2559.59    0.2931E-03
  2563.04    0.2878E-03
  2566.49    0.2826E-03
  2569.94    0.2776E-03
  2573.39    0.2728E-03
  2576.83    0.2680E-03
  2580.28    0.2634E-03
  2583.73    0.2589E-03
  2587.18    0.2546E-03
  2590.63    0.2503E-03
  2594.08    0.2462E-03
  2597.53    0.2422E-03
  2600.98    0.2383E-03
  2604.43    0.2344E-03
  2607.88    0.2307E-03
  2611.33    0.2271E-03
  2614.78    0.2236E-03
  2618.23    0.2201E-03
  2621.68    0.2168E-03
  2625.13    0.2135E-03
  2628.58    0.2103E-03
  2632.03    0.2072E-03
  2635.48    0.2042E-03
  2638.93    0.2012E-03
  2642.38    0.1983E-03
  2645.83    0.1955E-03
  2649.28    0.1927E-03
  2652.73    0.1900E-03
  2656.18    0.1874E-03
  2659.62    0.1848E-03
  2663.07    0.1823E-03
  2666.52    0.1798E-03
  2669.97    0.1774E-03
  2673.42    0.1751E-03
  2676.87    0.1728E-03
  2680.32    0.1706E-03
  2683.77    0.1684E-03
  2687.22    0.1662E-03
  2690.67    0.1641E-03
  2694.12    0.1621E-03
  2697.57    0.1600E-03
  2701.02    0.1581E-03
  2704.47    0.1562E-03
  2707.92    0.1543E-03
  2711.37    0.1524E-03
  2714.82    0.1506E-03
  2718.27    0.1488E-03
  2721.72    0.1471E-03
  2725.17    0.1454E-03
  2728.62    0.1438E-03
  2732.07    0.1421E-03
  2735.52    0.1405E-03
  2738.96    0.1390E-03
  2742.41    0.1375E-03
  2745.86    0.1360E-03
  2749.31    0.1345E-03
  2752.76    0.1330E-03
  2756.21    0.1316E-03
  2759.66    0.1303E-03
  2763.11    0.1289E-03
  2766.56    0.1276E-03
  2770.01    0.1263E-03
  2773.46    0.1250E-03
  2776.91    0.1238E-03
  2780.36    0.1225E-03
  2783.81    0.1213E-03
  2787.26    0.1201E-03
  2790.71    0.1190E-03
  2794.16    0.1179E-03
  2797.61    0.1168E-03
  2801.06    0.1157E-03
  2804.51    0.1146E-03
  2807.96    0.1136E-03
  2811.41    0.1125E-03
  2814.86    0.1115E-03
  2818.31    0.1105E-03
  2821.75    0.1096E-03
  2825.20    0.1086E-03
  2828.65    0.1077E-03
  2832.10    0.1068E-03
  2835.55    0.1059E-03
  2839.00    0.1050E-03
  2842.45    0.1042E-03
  2845.90    0.1033E-03
  2849.35    0.1025E-03
  2852.80    0.1017E-03
  2856.25    0.1009E-03
  2859.70    0.1001E-03
  2863.15    0.9938E-04
  2866.60    0.9864E-04
  2870.05    0.9791E-04
  2873.50    0.9720E-04
  2876.95    0.9650E-04
  2880.40    0.9582E-04
  2883.85    0.9516E-04
  2887.30    0.9450E-04
  2890.75    0.9386E-04
  2894.20    0.9324E-04
  2897.65    0.9263E-04
  2901.10    0.9204E-04
  2904.54    0.9145E-04
  2907.99    0.9088E-04
  2911.44    0.9033E-04
  2914.89    0.8979E-04
  2918.34    0.8926E-04
  2921.79    0.8874E-04
  2925.24    0.8824E-04
  2928.69    0.8775E-04
  2932.14    0.8727E-04
  2935.59    0.8681E-04
  2939.04    0.8636E-04
  2942.49    0.8592E-04
  2945.94    0.8549E-04
  2949.39    0.8508E-04
  2952.84    0.8468E-04
  2956.29    0.8429E-04
  2959.74    0.8391E-04
  2963.19    0.8355E-04
  2966.64    0.8320E-04
  2970.09    0.8286E-04
  2973.54    0.8253E-04
  2976.99    0.8222E-04
  2980.44    0.8192E-04
  2983.88    0.8163E-04
  2987.33    0.8135E-04
  2990.78    0.8109E-04
  2994.23    0.8084E-04
  2997.68    0.8060E-04
  3001.13    0.8038E-04
  3004.58    0.8017E-04
  3008.03    0.7997E-04
  3011.48    0.7978E-04
  3014.93    0.7961E-04
  3018.38    0.7945E-04
  3021.83    0.7931E-04
  3025.28    0.7918E-04
  3028.73    0.7906E-04
  3032.18    0.7896E-04
  3035.63    0.7887E-04
  3039.08    0.7880E-04
  3042.53    0.7874E-04
  3045.98    0.7870E-04
  3049.43    0.7867E-04
  3052.88    0.7866E-04
  3056.33    0.7866E-04
  3059.78    0.7868E-04
  3063.23    0.7872E-04
  3066.67    0.7877E-04
  3070.12    0.7884E-04
  3073.57    0.7893E-04
  3077.02    0.7904E-04
  3080.47    0.7916E-04
  3083.92    0.7931E-04
  3087.37    0.7948E-04
  3090.82    0.7966E-04
  3094.27    0.7987E-04
  3097.72    0.8009E-04
  3101.17    0.8034E-04
  3104.62    0.8062E-04
  3108.07    0.8091E-04
  3111.52    0.8123E-04
  3114.97    0.8158E-04
  3118.42    0.8195E-04
  3121.87    0.8235E-04
  3125.32    0.8278E-04
  3128.77    0.8323E-04
  3132.22    0.8372E-04
  3135.67    0.8423E-04
  3139.12    0.8478E-04
  3142.57    0.8537E-04
  3146.02    0.8598E-04
  3149.46    0.8664E-04
  3152.91    0.8733E-04
  3156.36    0.8806E-04
  3159.81    0.8883E-04
  3163.26    0.8965E-04
  3166.71    0.9051E-04
  3170.16    0.9142E-04
  3173.61    0.9238E-04
  3177.06    0.9339E-04
  3180.51    0.9446E-04
  3183.96    0.9558E-04
  3187.41    0.9677E-04
  3190.86    0.9802E-04
  3194.31    0.9933E-04
  3197.76    0.1007E-03
  3201.21    0.1022E-03
  3204.66    0.1037E-03
  3208.11    0.1053E-03
  3211.56    0.1070E-03
  3215.01    0.1089E-03
  3218.46    0.1108E-03
  3221.91    0.1128E-03
  3225.36    0.1149E-03
  3228.80    0.1171E-03
  3232.25    0.1195E-03
  3235.70    0.1220E-03
  3239.15    0.1246E-03
  3242.60    0.1274E-03
  3246.05    0.1304E-03
  3249.50    0.1335E-03
  3252.95    0.1369E-03
  3256.40    0.1404E-03
  3259.85    0.1442E-03
  3263.30    0.1481E-03
  3266.75    0.1524E-03
  3270.20    0.1569E-03
  3273.65    0.1617E-03
  3277.10    0.1669E-03
  3280.55    0.1724E-03
  3284.00    0.1782E-03
  3287.45    0.1845E-03
  3290.90    0.1913E-03
  3294.35    0.1985E-03
  3297.80    0.2063E-03
  3301.25    0.2147E-03
  3304.70    0.2238E-03
  3308.15    0.2336E-03
  3311.59    0.2442E-03
  3315.04    0.2557E-03
  3318.49    0.2682E-03
  3321.94    0.2818E-03
  3325.39    0.2967E-03
  3328.84    0.3129E-03
  3332.29    0.3308E-03
  3335.74    0.3505E-03
  3339.19    0.3722E-03
  3342.64    0.3963E-03
  3346.09    0.4230E-03
  3349.54    0.4529E-03
  3352.99    0.4863E-03
  3356.44    0.5238E-03
  3359.89    0.5663E-03
  3363.34    0.6145E-03
  3366.79    0.6695E-03
  3370.24    0.7327E-03
  3373.69    0.8058E-03
  3377.14    0.8908E-03
  3380.59    0.9905E-03
  3384.04    0.1109E-02
  3387.49    0.1249E-02
  3390.93    0.1420E-02
  3394.38    0.1627E-02
  3397.83    0.1884E-02
  3401.28    0.2208E-02
  3404.73    0.2621E-02
  3408.18    0.3159E-02
  3411.63    0.3876E-02
  3415.08    0.4855E-02
  3418.53    0.6230E-02
  3421.98    0.8215E-02
  3425.43    0.1116E-01
  3428.88    0.1556E-01
  3432.33    0.2190E-01
  3435.78    0.2956E-01
  3439.23    0.3471E-01
  3442.68    0.3268E-01
  3446.13    0.2552E-01
  3449.58    0.1833E-01
  3453.03    0.1303E-01
  3456.48    0.9467E-02
  3459.93    0.7079E-02
  3463.38    0.5447E-02
  3466.83    0.4300E-02
  3470.28    0.3471E-02
  3473.72    0.2856E-02
  3477.17    0.2388E-02
  3480.62    0.2025E-02
  3484.07    0.1739E-02
  3487.52    0.1509E-02
  3490.97    0.1322E-02
  3494.42    0.1168E-02
  3497.87    0.1039E-02
  3501.32    0.9312E-03
  3504.77    0.8393E-03
  3508.22    0.7605E-03
  3511.67    0.6926E-03
  3515.12    0.6336E-03
