
 ------------------------------------------------------------
     normal          Raman Scattering Plot
 ------------------------------------------------------------
 Excitation wavelength  514.50 nm
 Convolution lineshape is lorentzian  
 FWHM   20.00  1/cm
 ------------------------------------------------------------
 ------------------------------------------------------------
 # of frequencies :    18
 ------------------------------------------------------------
 #  freq [ 1/cm]  S [Ang**4/amu]
 ------------------------------------------------------------
   1   158.52        0.0000
   2   317.91        1.6534
   3   317.91        1.6483
   4   529.51        0.0000
   5   529.51        0.0000
   6   599.45        2.3428
   7   636.61        6.0589
   8   636.61        6.0547
   9   660.72        0.0001
  10   660.72        0.0026
  11   688.38       21.3721
  12   688.38       21.3768
  13  1140.74        0.0002
  14  1951.77       89.0539
  15  2080.32        0.0003
  16  2154.33      433.3029
  17  3437.42      104.5595
  18  3449.03        0.0008
 ------------------------------------------------------------
   101.94    0.1443E-03
   105.35    0.1474E-03
   108.76    0.1506E-03
   112.18    0.1539E-03
   115.59    0.1574E-03
   119.01    0.1611E-03
   122.42    0.1649E-03
   125.83    0.1689E-03
   129.25    0.1730E-03
   132.66    0.1774E-03
   136.08    0.1820E-03
   139.49    0.1869E-03
   142.90    0.1920E-03
   146.32    0.1974E-03
   149.73    0.2031E-03
   153.15    0.2092E-03
   156.56    0.2156E-03
   159.97    0.2222E-03
   163.39    0.2290E-03
   166.80    0.2362E-03
   170.22    0.2438E-03
   173.63    0.2521E-03
   177.04    0.2609E-03
   180.46    0.2703E-03
   183.87    0.2804E-03
   187.28    0.2913E-03
   190.70    0.3029E-03
   194.11    0.3155E-03
   197.53    0.3290E-03
   200.94    0.3437E-03
   204.35    0.3596E-03
   207.77    0.3769E-03
   211.18    0.3957E-03
   214.60    0.4163E-03
   218.01    0.4389E-03
   221.42    0.4638E-03
   224.84    0.4912E-03
   228.25    0.5217E-03
   231.67    0.5557E-03
   235.08    0.5937E-03
   238.49    0.6364E-03
   241.91    0.6846E-03
   245.32    0.7395E-03
   248.74    0.8022E-03
   252.15    0.8744E-03
   255.56    0.9581E-03
   258.98    0.1056E-02
   262.39    0.1171E-02
   265.81    0.1309E-02
   269.22    0.1474E-02
   272.63    0.1675E-02
   276.05    0.1924E-02
   279.46    0.2235E-02
   282.87    0.2632E-02
   286.29    0.3148E-02
   289.70    0.3834E-02
   293.12    0.4768E-02
   296.53    0.6075E-02
   299.94    0.7957E-02
   303.36    0.1074E-01
   306.77    0.1488E-01
   310.19    0.2081E-01
   313.60    0.2797E-01
   317.01    0.3288E-01
   320.43    0.3118E-01
   323.84    0.2458E-01
   327.26    0.1779E-01
   330.67    0.1274E-01
   334.08    0.9315E-02
   337.50    0.7017E-02
   340.91    0.5445E-02
   344.33    0.4341E-02
   347.74    0.3543E-02
   351.15    0.2952E-02
   354.57    0.2504E-02
   357.98    0.2158E-02
   361.39    0.1886E-02
   364.81    0.1669E-02
   368.22    0.1494E-02
   371.64    0.1350E-02
   375.05    0.1231E-02
   378.46    0.1133E-02
   381.88    0.1050E-02
   385.29    0.9801E-03
   388.71    0.9210E-03
   392.12    0.8707E-03
   395.53    0.8280E-03
   398.95    0.7915E-03
   402.36    0.7604E-03
   405.78    0.7339E-03
   409.19    0.7115E-03
   412.60    0.6926E-03
   416.02    0.6769E-03
   419.43    0.6639E-03
   422.85    0.6535E-03
   426.26    0.6453E-03
   429.67    0.6392E-03
   433.09    0.6351E-03
   436.50    0.6327E-03
   439.91    0.6321E-03
   443.33    0.6330E-03
   446.74    0.6355E-03
   450.16    0.6395E-03
   453.57    0.6450E-03
   456.98    0.6518E-03
   460.40    0.6602E-03
   463.81    0.6699E-03
   467.23    0.6812E-03
   470.64    0.6939E-03
   474.05    0.7081E-03
   477.47    0.7240E-03
   480.88    0.7415E-03
   484.30    0.7608E-03
   487.71    0.7820E-03
   491.12    0.8051E-03
   494.54    0.8304E-03
   497.95    0.8579E-03
   501.37    0.8879E-03
   504.78    0.9207E-03
   508.19    0.9564E-03
   511.61    0.9953E-03
   515.02    0.1038E-02
   518.44    0.1084E-02
   521.85    0.1136E-02
   525.26    0.1192E-02
   528.68    0.1253E-02
   532.09    0.1322E-02
   535.50    0.1398E-02
   538.92    0.1483E-02
   542.33    0.1577E-02
   545.75    0.1684E-02
   549.16    0.1806E-02
   552.57    0.1945E-02
   555.99    0.2105E-02
   559.40    0.2292E-02
   562.82    0.2514E-02
   566.23    0.2779E-02
   569.64    0.3104E-02
   573.06    0.3510E-02
   576.47    0.4031E-02
   579.89    0.4718E-02
   583.30    0.5655E-02
   586.71    0.6968E-02
   590.13    0.8816E-02
   593.54    0.1124E-01
   596.96    0.1371E-01
   600.37    0.1484E-01
   603.78    0.1420E-01
   607.20    0.1313E-01
   610.61    0.1276E-01
   614.02    0.1339E-01
   617.44    0.1515E-01
   620.85    0.1828E-01
   624.27    0.2330E-01
   627.68    0.3084E-01
   631.09    0.4086E-01
   634.51    0.5012E-01
   637.92    0.5184E-01
   641.34    0.4487E-01
   644.75    0.3578E-01
   648.16    0.2892E-01
   651.58    0.2488E-01
   654.99    0.2313E-01
   658.41    0.2321E-01
   661.82    0.2498E-01
   665.23    0.2860E-01
   668.65    0.3461E-01
   672.06    0.4405E-01
   675.48    0.5862E-01
   678.89    0.8052E-01
   682.30    0.1104    
   685.72    0.1402    
   689.13    0.1490    
   692.55    0.1278    
   695.96    0.9548E-01
   699.37    0.6834E-01
   702.79    0.4932E-01
   706.20    0.3653E-01
   709.61    0.2785E-01
   713.03    0.2183E-01
   716.44    0.1751E-01
   719.86    0.1434E-01
   723.27    0.1195E-01
   726.68    0.1011E-01
   730.10    0.8668E-02
   733.51    0.7512E-02
   736.93    0.6575E-02
   740.34    0.5805E-02
   743.75    0.5164E-02
   747.17    0.4625E-02
   750.58    0.4167E-02
   754.00    0.3776E-02
   757.41    0.3438E-02
   760.82    0.3144E-02
   764.24    0.2887E-02
   767.65    0.2662E-02
   771.07    0.2462E-02
   774.48    0.2284E-02
   777.89    0.2126E-02
   781.31    0.1984E-02
   784.72    0.1856E-02
   788.13    0.1740E-02
   791.55    0.1636E-02
   794.96    0.1540E-02
   798.38    0.1453E-02
   801.79    0.1374E-02
   805.20    0.1301E-02
   808.62    0.1234E-02
   812.03    0.1172E-02
   815.45    0.1115E-02
   818.86    0.1062E-02
   822.27    0.1013E-02
   825.69    0.9678E-03
   829.10    0.9254E-03
   832.52    0.8859E-03
   835.93    0.8490E-03
   839.34    0.8145E-03
   842.76    0.7821E-03
   846.17    0.7518E-03
   849.59    0.7233E-03
   853.00    0.6965E-03
   856.41    0.6712E-03
   859.83    0.6474E-03
   863.24    0.6250E-03
   866.66    0.6037E-03
   870.07    0.5836E-03
   873.48    0.5646E-03
   876.90    0.5466E-03
   880.31    0.5295E-03
   883.72    0.5132E-03
   887.14    0.4978E-03
   890.55    0.4831E-03
   893.97    0.4691E-03
   897.38    0.4558E-03
   900.79    0.4431E-03
   904.21    0.4309E-03
   907.62    0.4194E-03
   911.04    0.4083E-03
   914.45    0.3978E-03
   917.86    0.3876E-03
   921.28    0.3780E-03
   924.69    0.3687E-03
   928.11    0.3598E-03
   931.52    0.3513E-03
   934.93    0.3431E-03
   938.35    0.3353E-03
   941.76    0.3278E-03
   945.18    0.3205E-03
   948.59    0.3136E-03
   952.00    0.3069E-03
   955.42    0.3004E-03
   958.83    0.2942E-03
   962.24    0.2883E-03
   965.66    0.2825E-03
   969.07    0.2770E-03
   972.49    0.2717E-03
   975.90    0.2665E-03
   979.31    0.2615E-03
   982.73    0.2567E-03
   986.14    0.2521E-03
   989.56    0.2477E-03
   992.97    0.2433E-03
   996.38    0.2392E-03
   999.80    0.2351E-03
  1003.21    0.2312E-03
  1006.63    0.2275E-03
  1010.04    0.2238E-03
  1013.45    0.2203E-03
  1016.87    0.2169E-03
  1020.28    0.2136E-03
  1023.70    0.2104E-03
  1027.11    0.2073E-03
  1030.52    0.2043E-03
  1033.94    0.2014E-03
  1037.35    0.1986E-03
  1040.77    0.1959E-03
  1044.18    0.1932E-03
  1047.59    0.1907E-03
  1051.01    0.1882E-03
  1054.42    0.1858E-03
  1057.83    0.1834E-03
  1061.25    0.1812E-03
  1064.66    0.1790E-03
  1068.08    0.1769E-03
  1071.49    0.1748E-03
  1074.90    0.1728E-03
  1078.32    0.1708E-03
  1081.73    0.1690E-03
  1085.15    0.1671E-03
  1088.56    0.1653E-03
  1091.97    0.1636E-03
  1095.39    0.1620E-03
  1098.80    0.1603E-03
  1102.22    0.1588E-03
  1105.63    0.1572E-03
  1109.04    0.1558E-03
  1112.46    0.1543E-03
  1115.87    0.1529E-03
  1119.29    0.1516E-03
  1122.70    0.1503E-03
  1126.11    0.1491E-03
  1129.53    0.1479E-03
  1132.94    0.1467E-03
  1136.35    0.1457E-03
  1139.77    0.1446E-03
  1143.18    0.1435E-03
  1146.60    0.1423E-03
  1150.01    0.1413E-03
  1153.42    0.1402E-03
  1156.84    0.1392E-03
  1160.25    0.1383E-03
  1163.67    0.1373E-03
  1167.08    0.1365E-03
  1170.49    0.1356E-03
  1173.91    0.1348E-03
  1177.32    0.1340E-03
  1180.74    0.1332E-03
  1184.15    0.1325E-03
  1187.56    0.1318E-03
  1190.98    0.1311E-03
  1194.39    0.1305E-03
  1197.81    0.1298E-03
  1201.22    0.1292E-03
  1204.63    0.1286E-03
  1208.05    0.1281E-03
  1211.46    0.1275E-03
  1214.88    0.1270E-03
  1218.29    0.1265E-03
  1221.70    0.1261E-03
  1225.12    0.1256E-03
  1228.53    0.1252E-03
  1231.94    0.1248E-03
  1235.36    0.1244E-03
  1238.77    0.1240E-03
  1242.19    0.1237E-03
  1245.60    0.1234E-03
  1249.01    0.1230E-03
  1252.43    0.1228E-03
  1255.84    0.1225E-03
  1259.26    0.1222E-03
  1262.67    0.1220E-03
  1266.08    0.1218E-03
  1269.50    0.1216E-03
  1272.91    0.1214E-03
  1276.33    0.1213E-03
  1279.74    0.1211E-03
  1283.15    0.1210E-03
  1286.57    0.1209E-03
  1289.98    0.1208E-03
  1293.40    0.1207E-03
  1296.81    0.1207E-03
  1300.22    0.1206E-03
  1303.64    0.1206E-03
  1307.05    0.1206E-03
  1310.46    0.1206E-03
  1313.88    0.1207E-03
  1317.29    0.1207E-03
  1320.71    0.1208E-03
  1324.12    0.1208E-03
  1327.53    0.1209E-03
  1330.95    0.1211E-03
  1334.36    0.1212E-03
  1337.78    0.1213E-03
  1341.19    0.1215E-03
  1344.60    0.1217E-03
  1348.02    0.1219E-03
  1351.43    0.1221E-03
  1354.85    0.1223E-03
  1358.26    0.1226E-03
  1361.67    0.1228E-03
  1365.09    0.1231E-03
  1368.50    0.1234E-03
  1371.92    0.1237E-03
  1375.33    0.1241E-03
  1378.74    0.1244E-03
  1382.16    0.1248E-03
  1385.57    0.1252E-03
  1388.98    0.1256E-03
  1392.40    0.1260E-03
  1395.81    0.1265E-03
  1399.23    0.1269E-03
  1402.64    0.1274E-03
  1406.05    0.1279E-03
  1409.47    0.1284E-03
  1412.88    0.1289E-03
  1416.30    0.1295E-03
  1419.71    0.1301E-03
  1423.12    0.1307E-03
  1426.54    0.1313E-03
  1429.95    0.1319E-03
  1433.37    0.1326E-03
  1436.78    0.1332E-03
  1440.19    0.1339E-03
  1443.61    0.1346E-03
  1447.02    0.1354E-03
  1450.44    0.1361E-03
  1453.85    0.1369E-03
  1457.26    0.1377E-03
  1460.68    0.1386E-03
  1464.09    0.1394E-03
  1467.51    0.1403E-03
  1470.92    0.1412E-03
  1474.33    0.1421E-03
  1477.75    0.1431E-03
  1481.16    0.1440E-03
  1484.57    0.1450E-03
  1487.99    0.1461E-03
  1491.40    0.1471E-03
  1494.82    0.1482E-03
  1498.23    0.1493E-03
  1501.64    0.1505E-03
  1505.06    0.1516E-03
  1508.47    0.1528E-03
  1511.89    0.1541E-03
  1515.30    0.1553E-03
  1518.71    0.1566E-03
  1522.13    0.1580E-03
  1525.54    0.1593E-03
  1528.96    0.1607E-03
  1532.37    0.1621E-03
  1535.78    0.1636E-03
  1539.20    0.1651E-03
  1542.61    0.1667E-03
  1546.03    0.1682E-03
  1549.44    0.1699E-03
  1552.85    0.1715E-03
  1556.27    0.1732E-03
  1559.68    0.1750E-03
  1563.09    0.1768E-03
  1566.51    0.1786E-03
  1569.92    0.1805E-03
  1573.34    0.1824E-03
  1576.75    0.1844E-03
  1580.16    0.1864E-03
  1583.58    0.1885E-03
  1586.99    0.1907E-03
  1590.41    0.1929E-03
  1593.82    0.1951E-03
  1597.23    0.1974E-03
  1600.65    0.1998E-03
  1604.06    0.2023E-03
  1607.48    0.2048E-03
  1610.89    0.2073E-03
  1614.30    0.2100E-03
  1617.72    0.2127E-03
  1621.13    0.2155E-03
  1624.55    0.2183E-03
  1627.96    0.2213E-03
  1631.37    0.2243E-03
  1634.79    0.2274E-03
  1638.20    0.2306E-03
  1641.62    0.2339E-03
  1645.03    0.2373E-03
  1648.44    0.2408E-03
  1651.86    0.2444E-03
  1655.27    0.2481E-03
  1658.68    0.2519E-03
  1662.10    0.2558E-03
  1665.51    0.2598E-03
  1668.93    0.2640E-03
  1672.34    0.2683E-03
  1675.75    0.2727E-03
  1679.17    0.2773E-03
  1682.58    0.2820E-03
  1686.00    0.2869E-03
  1689.41    0.2919E-03
  1692.82    0.2971E-03
  1696.24    0.3025E-03
  1699.65    0.3080E-03
  1703.07    0.3138E-03
  1706.48    0.3197E-03
  1709.89    0.3259E-03
  1713.31    0.3323E-03
  1716.72    0.3389E-03
  1720.14    0.3458E-03
  1723.55    0.3529E-03
  1726.96    0.3603E-03
  1730.38    0.3680E-03
  1733.79    0.3760E-03
  1737.20    0.3843E-03
  1740.62    0.3929E-03
  1744.03    0.4019E-03
  1747.45    0.4113E-03
  1750.86    0.4211E-03
  1754.27    0.4313E-03
  1757.69    0.4419E-03
  1761.10    0.4531E-03
  1764.52    0.4647E-03
  1767.93    0.4769E-03
  1771.34    0.4897E-03
  1774.76    0.5031E-03
  1778.17    0.5172E-03
  1781.59    0.5320E-03
  1785.00    0.5476E-03
  1788.41    0.5641E-03
  1791.83    0.5814E-03
  1795.24    0.5997E-03
  1798.66    0.6190E-03
  1802.07    0.6395E-03
  1805.48    0.6612E-03
  1808.90    0.6843E-03
  1812.31    0.7089E-03
  1815.73    0.7350E-03
  1819.14    0.7630E-03
  1822.55    0.7928E-03
  1825.97    0.8249E-03
  1829.38    0.8593E-03
  1832.79    0.8963E-03
  1836.21    0.9362E-03
  1839.62    0.9794E-03
  1843.04    0.1026E-02
  1846.45    0.1077E-02
  1849.86    0.1133E-02
  1853.28    0.1194E-02
  1856.69    0.1261E-02
  1860.11    0.1334E-02
  1863.52    0.1416E-02
  1866.93    0.1507E-02
  1870.35    0.1608E-02
  1873.76    0.1721E-02
  1877.18    0.1850E-02
  1880.59    0.1995E-02
  1884.00    0.2162E-02
  1887.42    0.2353E-02
  1890.83    0.2575E-02
  1894.25    0.2834E-02
  1897.66    0.3139E-02
  1901.07    0.3504E-02
  1904.49    0.3943E-02
  1907.90    0.4479E-02
  1911.31    0.5144E-02
  1914.73    0.5980E-02
  1918.14    0.7052E-02
  1921.56    0.8455E-02
  1924.97    0.1033E-01
  1928.38    0.1292E-01
  1931.80    0.1657E-01
  1935.21    0.2189E-01
  1938.63    0.2979E-01
  1942.04    0.4146E-01
  1945.45    0.5743E-01
  1948.87    0.7390E-01
  1952.28    0.7988E-01
  1955.70    0.6954E-01
  1959.11    0.5240E-01
  1962.52    0.3768E-01
  1965.94    0.2731E-01
  1969.35    0.2036E-01
  1972.77    0.1568E-01
  1976.18    0.1245E-01
  1979.59    0.1017E-01
  1983.01    0.8515E-02
  1986.42    0.7287E-02
  1989.84    0.6360E-02
  1993.25    0.5649E-02
  1996.66    0.5098E-02
  2000.08    0.4667E-02
  2003.49    0.4330E-02
  2006.90    0.4066E-02
  2010.32    0.3861E-02
  2013.73    0.3705E-02
  2017.15    0.3589E-02
  2020.56    0.3508E-02
  2023.97    0.3457E-02
  2027.39    0.3433E-02
  2030.80    0.3434E-02
  2034.22    0.3459E-02
  2037.63    0.3505E-02
  2041.04    0.3574E-02
  2044.46    0.3665E-02
  2047.87    0.3779E-02
  2051.29    0.3917E-02
  2054.70    0.4081E-02
  2058.11    0.4272E-02
  2061.53    0.4494E-02
  2064.94    0.4749E-02
  2068.36    0.5044E-02
  2071.77    0.5382E-02
  2075.18    0.5770E-02
  2078.60    0.6218E-02
  2082.01    0.6734E-02
  2085.42    0.7333E-02
  2088.84    0.8030E-02
  2092.25    0.8847E-02
  2095.67    0.9810E-02
  2099.08    0.1095E-01
  2102.49    0.1233E-01
  2105.91    0.1399E-01
  2109.32    0.1602E-01
  2112.74    0.1854E-01
  2116.15    0.2171E-01
  2119.56    0.2577E-01
  2122.98    0.3107E-01
  2126.39    0.3814E-01
  2129.81    0.4780E-01
  2133.22    0.6137E-01
  2136.63    0.8095E-01
  2140.05    0.1099    
  2143.46    0.1531    
  2146.88    0.2146    
  2150.29    0.2869    
  2153.70    0.3324    
  2157.12    0.3096    
  2160.53    0.2410    
  2163.94    0.1735    
  2167.36    0.1238    
  2170.77    0.9021E-01
  2174.19    0.6763E-01
  2177.60    0.5214E-01
  2181.01    0.4122E-01
  2184.43    0.3331E-01
  2187.84    0.2742E-01
  2191.26    0.2293E-01
  2194.67    0.1945E-01
  2198.08    0.1670E-01
  2201.50    0.1448E-01
  2204.91    0.1268E-01
  2208.33    0.1119E-01
  2211.74    0.9948E-02
  2215.15    0.8902E-02
  2218.57    0.8013E-02
  2221.98    0.7250E-02
  2225.40    0.6592E-02
  2228.81    0.6020E-02
  2232.22    0.5519E-02
  2235.64    0.5079E-02
  2239.05    0.4690E-02
  2242.47    0.4344E-02
  2245.88    0.4035E-02
  2249.29    0.3758E-02
  2252.71    0.3509E-02
  2256.12    0.3285E-02
  2259.53    0.3081E-02
  2262.95    0.2896E-02
  2266.36    0.2727E-02
  2269.78    0.2573E-02
  2273.19    0.2432E-02
  2276.60    0.2302E-02
  2280.02    0.2183E-02
  2283.43    0.2072E-02
  2286.85    0.1970E-02
  2290.26    0.1876E-02
  2293.67    0.1788E-02
  2297.09    0.1706E-02
  2300.50    0.1630E-02
  2303.92    0.1559E-02
  2307.33    0.1492E-02
  2310.74    0.1430E-02
  2314.16    0.1372E-02
  2317.57    0.1317E-02
  2320.99    0.1266E-02
  2324.40    0.1217E-02
  2327.81    0.1172E-02
  2331.23    0.1128E-02
  2334.64    0.1088E-02
  2338.05    0.1049E-02
  2341.47    0.1013E-02
  2344.88    0.9783E-03
  2348.30    0.9455E-03
  2351.71    0.9144E-03
  2355.12    0.8849E-03
  2358.54    0.8567E-03
  2361.95    0.8300E-03
  2365.37    0.8045E-03
  2368.78    0.7802E-03
  2372.19    0.7570E-03
  2375.61    0.7348E-03
  2379.02    0.7137E-03
  2382.44    0.6934E-03
  2385.85    0.6741E-03
  2389.26    0.6555E-03
  2392.68    0.6377E-03
  2396.09    0.6207E-03
  2399.51    0.6044E-03
  2402.92    0.5887E-03
  2406.33    0.5736E-03
  2409.75    0.5591E-03
  2413.16    0.5452E-03
  2416.58    0.5318E-03
  2419.99    0.5190E-03
  2423.40    0.5066E-03
  2426.82    0.4946E-03
  2430.23    0.4831E-03
  2433.64    0.4720E-03
  2437.06    0.4613E-03
  2440.47    0.4509E-03
  2443.89    0.4409E-03
  2447.30    0.4313E-03
  2450.71    0.4220E-03
  2454.13    0.4130E-03
  2457.54    0.4043E-03
  2460.96    0.3958E-03
  2464.37    0.3877E-03
  2467.78    0.3798E-03
  2471.20    0.3721E-03
  2474.61    0.3647E-03
  2478.03    0.3575E-03
  2481.44    0.3506E-03
  2484.85    0.3438E-03
  2488.27    0.3373E-03
  2491.68    0.3309E-03
  2495.10    0.3248E-03
  2498.51    0.3188E-03
  2501.92    0.3130E-03
  2505.34    0.3073E-03
  2508.75    0.3018E-03
  2512.16    0.2965E-03
  2515.58    0.2913E-03
  2518.99    0.2863E-03
  2522.41    0.2813E-03
  2525.82    0.2766E-03
  2529.23    0.2719E-03
  2532.65    0.2674E-03
  2536.06    0.2630E-03
  2539.48    0.2587E-03
  2542.89    0.2545E-03
  2546.30    0.2504E-03
  2549.72    0.2465E-03
  2553.13    0.2426E-03
  2556.55    0.2388E-03
  2559.96    0.2352E-03
  2563.37    0.2316E-03
  2566.79    0.2281E-03
  2570.20    0.2247E-03
  2573.62    0.2213E-03
  2577.03    0.2181E-03
  2580.44    0.2149E-03
  2583.86    0.2118E-03
  2587.27    0.2088E-03
  2590.69    0.2058E-03
  2594.10    0.2029E-03
  2597.51    0.2001E-03
  2600.93    0.1973E-03
  2604.34    0.1946E-03
  2607.75    0.1920E-03
  2611.17    0.1894E-03
  2614.58    0.1869E-03
  2618.00    0.1844E-03
  2621.41    0.1820E-03
  2624.82    0.1796E-03
  2628.24    0.1773E-03
  2631.65    0.1751E-03
  2635.07    0.1729E-03
  2638.48    0.1707E-03
  2641.89    0.1686E-03
  2645.31    0.1665E-03
  2648.72    0.1645E-03
  2652.14    0.1625E-03
  2655.55    0.1605E-03
  2658.96    0.1586E-03
  2662.38    0.1568E-03
  2665.79    0.1549E-03
  2669.21    0.1531E-03
  2672.62    0.1514E-03
  2676.03    0.1496E-03
  2679.45    0.1480E-03
  2682.86    0.1463E-03
  2686.27    0.1447E-03
  2689.69    0.1431E-03
  2693.10    0.1415E-03
  2696.52    0.1400E-03
  2699.93    0.1385E-03
  2703.34    0.1370E-03
  2706.76    0.1356E-03
  2710.17    0.1342E-03
  2713.59    0.1328E-03
  2717.00    0.1314E-03
  2720.41    0.1301E-03
  2723.83    0.1288E-03
  2727.24    0.1275E-03
  2730.66    0.1262E-03
  2734.07    0.1250E-03
  2737.48    0.1238E-03
  2740.90    0.1226E-03
  2744.31    0.1214E-03
  2747.73    0.1203E-03
  2751.14    0.1191E-03
  2754.55    0.1180E-03
  2757.97    0.1170E-03
  2761.38    0.1159E-03
  2764.80    0.1148E-03
  2768.21    0.1138E-03
  2771.62    0.1128E-03
  2775.04    0.1118E-03
  2778.45    0.1109E-03
  2781.86    0.1099E-03
  2785.28    0.1090E-03
  2788.69    0.1081E-03
  2792.11    0.1072E-03
  2795.52    0.1063E-03
  2798.93    0.1054E-03
  2802.35    0.1046E-03
  2805.76    0.1037E-03
  2809.18    0.1029E-03
  2812.59    0.1021E-03
  2816.00    0.1013E-03
  2819.42    0.1005E-03
  2822.83    0.9979E-04
  2826.25    0.9905E-04
  2829.66    0.9832E-04
  2833.07    0.9760E-04
  2836.49    0.9690E-04
  2839.90    0.9621E-04
  2843.32    0.9554E-04
  2846.73    0.9488E-04
  2850.14    0.9423E-04
  2853.56    0.9360E-04
  2856.97    0.9298E-04
  2860.38    0.9237E-04
  2863.80    0.9178E-04
  2867.21    0.9119E-04
  2870.63    0.9062E-04
  2874.04    0.9006E-04
  2877.45    0.8952E-04
  2880.87    0.8898E-04
  2884.28    0.8846E-04
  2887.70    0.8795E-04
  2891.11    0.8745E-04
  2894.52    0.8696E-04
  2897.94    0.8649E-04
  2901.35    0.8602E-04
  2904.77    0.8557E-04
  2908.18    0.8513E-04
  2911.59    0.8469E-04
  2915.01    0.8427E-04
  2918.42    0.8387E-04
  2921.84    0.8347E-04
  2925.25    0.8308E-04
  2928.66    0.8271E-04
  2932.08    0.8234E-04
  2935.49    0.8199E-04
  2938.91    0.8165E-04
  2942.32    0.8132E-04
  2945.73    0.8100E-04
  2949.15    0.8069E-04
  2952.56    0.8039E-04
  2955.97    0.8010E-04
  2959.39    0.7983E-04
  2962.80    0.7956E-04
  2966.22    0.7931E-04
  2969.63    0.7906E-04
  2973.04    0.7883E-04
  2976.46    0.7861E-04
  2979.87    0.7840E-04
  2983.29    0.7821E-04
  2986.70    0.7802E-04
  2990.11    0.7785E-04
  2993.53    0.7768E-04
  2996.94    0.7753E-04
  3000.36    0.7739E-04
  3003.77    0.7727E-04
  3007.18    0.7715E-04
  3010.60    0.7705E-04
  3014.01    0.7696E-04
  3017.43    0.7689E-04
  3020.84    0.7682E-04
  3024.25    0.7677E-04
  3027.67    0.7674E-04
  3031.08    0.7671E-04
  3034.49    0.7670E-04
  3037.91    0.7671E-04
  3041.32    0.7673E-04
  3044.74    0.7676E-04
  3048.15    0.7681E-04
  3051.56    0.7688E-04
  3054.98    0.7696E-04
  3058.39    0.7705E-04
  3061.81    0.7717E-04
  3065.22    0.7730E-04
  3068.63    0.7744E-04
  3072.05    0.7761E-04
  3075.46    0.7779E-04
  3078.88    0.7799E-04
  3082.29    0.7821E-04
  3085.70    0.7845E-04
  3089.12    0.7871E-04
  3092.53    0.7900E-04
  3095.95    0.7930E-04
  3099.36    0.7962E-04
  3102.77    0.7997E-04
  3106.19    0.8035E-04
  3109.60    0.8074E-04
  3113.01    0.8117E-04
  3116.43    0.8162E-04
  3119.84    0.8209E-04
  3123.26    0.8260E-04
  3126.67    0.8313E-04
  3130.08    0.8370E-04
  3133.50    0.8429E-04
  3136.91    0.8492E-04
  3140.33    0.8559E-04
  3143.74    0.8629E-04
  3147.15    0.8703E-04
  3150.57    0.8780E-04
  3153.98    0.8862E-04
  3157.40    0.8948E-04
  3160.81    0.9039E-04
  3164.22    0.9134E-04
  3167.64    0.9234E-04
  3171.05    0.9339E-04
  3174.47    0.9449E-04
  3177.88    0.9566E-04
  3181.29    0.9688E-04
  3184.71    0.9816E-04
  3188.12    0.9951E-04
  3191.54    0.1009E-03
  3194.95    0.1024E-03
  3198.36    0.1040E-03
  3201.78    0.1056E-03
  3205.19    0.1074E-03
  3208.60    0.1092E-03
  3212.02    0.1111E-03
  3215.43    0.1131E-03
  3218.85    0.1153E-03
  3222.26    0.1175E-03
  3225.67    0.1199E-03
  3229.09    0.1224E-03
  3232.50    0.1250E-03
  3235.92    0.1278E-03
  3239.33    0.1307E-03
  3242.74    0.1338E-03
  3246.16    0.1371E-03
  3249.57    0.1406E-03
  3252.99    0.1443E-03
  3256.40    0.1482E-03
  3259.81    0.1524E-03
  3263.23    0.1568E-03
  3266.64    0.1615E-03
  3270.06    0.1665E-03
  3273.47    0.1718E-03
  3276.88    0.1775E-03
  3280.30    0.1836E-03
  3283.71    0.1901E-03
  3287.12    0.1970E-03
  3290.54    0.2045E-03
  3293.95    0.2125E-03
  3297.37    0.2211E-03
  3300.78    0.2304E-03
  3304.19    0.2404E-03
  3307.61    0.2512E-03
  3311.02    0.2629E-03
  3314.44    0.2756E-03
  3317.85    0.2894E-03
  3321.26    0.3045E-03
  3324.68    0.3209E-03
  3328.09    0.3389E-03
  3331.51    0.3587E-03
  3334.92    0.3805E-03
  3338.33    0.4046E-03
  3341.75    0.4312E-03
  3345.16    0.4609E-03
  3348.58    0.4940E-03
  3351.99    0.5311E-03
  3355.40    0.5729E-03
  3358.82    0.6201E-03
  3362.23    0.6738E-03
  3365.65    0.7351E-03
  3369.06    0.8056E-03
  3372.47    0.8873E-03
  3375.89    0.9824E-03
  3379.30    0.1094E-02
  3382.71    0.1227E-02
  3386.13    0.1385E-02
  3389.54    0.1577E-02
  3392.96    0.1812E-02
  3396.37    0.2103E-02
  3399.78    0.2471E-02
  3403.20    0.2942E-02
  3406.61    0.3558E-02
  3410.03    0.4383E-02
  3413.44    0.5514E-02
  3416.85    0.7109E-02
  3420.27    0.9422E-02
  3423.68    0.1285E-01
  3427.10    0.1795E-01
  3430.51    0.2509E-01
  3433.92    0.3303E-01
  3437.34    0.3706E-01
  3440.75    0.3337E-01
  3444.17    0.2549E-01
  3447.58    0.1826E-01
  3450.99    0.1306E-01
  3454.41    0.9561E-02
  3457.82    0.7203E-02
  3461.23    0.5579E-02
  3464.65    0.4429E-02
  3468.06    0.3591E-02
  3471.48    0.2966E-02
  3474.89    0.2488E-02
  3478.30    0.2116E-02
  3481.72    0.1821E-02
  3485.13    0.1584E-02
  3488.55    0.1390E-02
  3491.96    0.1230E-02
  3495.37    0.1096E-02
  3498.79    0.9828E-03
  3502.20    0.8866E-03
  3505.62    0.8041E-03
  3509.03    0.7328E-03
  3512.44    0.6708E-03
