
 ------------------------------------------------------------
     normal          Raman Scattering Plot
 ------------------------------------------------------------
 Excitation wavelength  514.50 nm
 Convolution lineshape is lorentzian  
 FWHM   20.00  1/cm
 ------------------------------------------------------------
 ------------------------------------------------------------
 # of frequencies :    72
 ------------------------------------------------------------
 #  freq [ 1/cm]  S [Ang**4/amu]
 ------------------------------------------------------------
   4    30.02  3372146.5791
   5    31.34 23931235.1289
   6    58.77  2152194.6001
   7    60.27 51147814.3804
   8    92.28  3363765.3159
   9    94.17 39007143.1010
  10   134.46 15402593.2981
  11   135.42  6830963.9595
  12   166.79  1230758.9741
  13   176.80 27156666.5721
  14   177.94 17096348.5771
  15   223.10  4948226.1285
  16   223.66  9846565.1870
  17   270.10  6748212.7528
  18   270.69 16476939.9451
  19   315.02 24429653.0978
  20   315.22 16438143.8331
  21   333.08 22502442.4801
  22   348.94 27100082.5666
  23   349.04 33360724.0947
  24   439.85  9628072.0863
  25   439.90 16411372.7989
  26   475.30 15613825.0498
  27   475.39 22734282.1628
  28   501.13  2636128.4312
  29   503.00 37140275.9717
  30   503.08 41096510.1123
  31   517.09 21248741.7863
  32   517.20 43527044.0540
  33   524.17 10147892.1241
  34   524.19 12542345.7042
  35   533.34  9311996.9047
  36   533.38 56726749.6704
  37   537.57  7453555.3455
  38   537.65 11133973.3873
  39   544.84  6349166.0531
  40   544.98 12783169.9507
  41   554.04 18820864.4134
  42   554.15 49905306.1884
  43   603.51379121913.6346
  44   603.80100398609.1037
  45   605.12 46615232.7682
  46   605.47 95839654.5136
  47   661.70 31533100.8024
  48   662.60 23151125.6786
  49   664.33  6812202.0455
  50   665.01 66430468.1336
  51   665.04 14297358.6139
  52   822.43  1719362.2544
  53   977.99  2783038.2958
  54  1127.19  4329196.7645
  55  1265.63  4151991.5313
  56  1393.07  1116133.5775
  57  1503.15  8819323.4273
  58  1591.05   871403.1313
  59  1991.02 33128944.7328
  60  2076.42 43403121.3301
  61  2107.73 11603672.4978
  62  2132.93  3143421.9906
  63  2145.14 14545415.5725
  64  2183.86 11222381.2426
  65  2220.05 11564187.8312
  66  2234.52 12487625.0607
  67  2269.34 25691630.8112
  68  2273.69 24200835.9904
  69  2293.45 16322313.3421
  70  2299.53 15229001.9208
  71  3489.47   684051.8309
  72  3491.58 58163343.0648
 ------------------------------------------------------------
   -56.38    0.3032E+06
   -52.77    0.3271E+06
   -49.15    0.3539E+06
   -45.54    0.3844E+06
   -41.92    0.4190E+06
   -38.31    0.4587E+06
   -34.69    0.5045E+06
   -31.08    0.5577E+06
   -27.46    0.6200E+06
   -23.85    0.6938E+06
   -20.23    0.7820E+06
   -16.62    0.8886E+06
   -13.00    0.1019E+07
    -9.39    0.1182E+07
    -5.77    0.1388E+07
    -2.16    0.1653E+07
     1.46    0.2004E+07
     5.07    0.2480E+07
     8.69    0.3144E+07
    12.30    0.4102E+07
    15.92    0.5526E+07
    19.53    0.7680E+07
    23.15    0.1084E+08
    26.76    0.1477E+08
    30.38    0.1753E+08
    34.00    0.1666E+08
    37.61    0.1338E+08
    41.23    0.1041E+08
    44.84    0.8701E+07
    48.46    0.8229E+07
    52.07    0.8862E+07
    55.69    0.1028E+08
    59.30    0.1131E+08
    62.92    0.1044E+08
    66.53    0.8249E+07
    70.15    0.6200E+07
    73.76    0.4803E+07
    77.38    0.3990E+07
    80.99    0.3631E+07
    84.61    0.3663E+07
    88.22    0.4020E+07
    91.84    0.4426E+07
    95.45    0.4318E+07
    99.07    0.3591E+07
   102.68    0.2758E+07
   106.30    0.2123E+07
   109.91    0.1698E+07
   113.53    0.1427E+07
   117.14    0.1266E+07
   120.76    0.1194E+07
   124.37    0.1205E+07
   127.99    0.1300E+07
   131.61    0.1431E+07
   135.22    0.1457E+07
   138.84    0.1294E+07
   142.45    0.1064E+07
   146.07    0.8793E+06
   149.68    0.7615E+06
   153.30    0.6991E+06
   156.91    0.6831E+06
   160.53    0.7132E+06
   164.14    0.7960E+06
   167.76    0.9419E+06
   171.37    0.1152E+07
   174.99    0.1351E+07
   178.60    0.1360E+07
   182.22    0.1143E+07
   185.83    0.8776E+06
   189.45    0.6732E+06
   193.06    0.5359E+06
   196.68    0.4467E+06
   200.29    0.3896E+06
   203.91    0.3553E+06
   207.52    0.3397E+06
   211.14    0.3425E+06
   214.75    0.3658E+06
   218.37    0.4072E+06
   221.99    0.4416E+06
   225.60    0.4262E+06
   229.22    0.3667E+06
   232.83    0.3056E+06
   236.45    0.2615E+06
   240.06    0.2337E+06
   243.68    0.2180E+06
   247.29    0.2119E+06
   250.91    0.2148E+06
   254.52    0.2282E+06
   258.14    0.2554E+06
   261.75    0.3014E+06
   265.37    0.3648E+06
   268.98    0.4183E+06
   272.60    0.4126E+06
   276.21    0.3539E+06
   279.83    0.2922E+06
   283.44    0.2501E+06
   287.06    0.2273E+06
   290.67    0.2197E+06
   294.29    0.2254E+06
   297.90    0.2454E+06
   301.52    0.2836E+06
   305.13    0.3469E+06
   308.75    0.4395E+06
   312.36    0.5402E+06
   315.98    0.5835E+06
   319.60    0.5453E+06
   323.21    0.4940E+06
   326.83    0.4809E+06
   330.44    0.5028E+06
   334.06    0.5237E+06
   337.67    0.5331E+06
   341.29    0.5680E+06
   344.90    0.6388E+06
   348.52    0.6787E+06
   352.13    0.6094E+06
   355.75    0.4754E+06
   359.36    0.3558E+06
   362.98    0.2716E+06
   366.59    0.2154E+06
   370.21    0.1777E+06
   373.82    0.1516E+06
   377.44    0.1332E+06
   381.05    0.1198E+06
   384.67    0.1099E+06
   388.28    0.1026E+06
   391.90    0.9729E+05
   395.51    0.9354E+05
   399.13    0.9116E+05
   402.74    0.9003E+05
   406.36    0.9017E+05
   409.98    0.9171E+05
   413.59    0.9496E+05
   417.21    0.1005E+06
   420.82    0.1092E+06
   424.44    0.1229E+06
   428.05    0.1439E+06
   431.67    0.1752E+06
   435.28    0.2151E+06
   438.90    0.2456E+06
   442.51    0.2415E+06
   446.13    0.2127E+06
   449.74    0.1867E+06
   453.36    0.1739E+06
   456.97    0.1742E+06
   460.59    0.1874E+06
   464.20    0.2153E+06
   467.82    0.2603E+06
   471.43    0.3171E+06
   475.05    0.3575E+06
   478.66    0.3538E+06
   482.28    0.3304E+06
   485.89    0.3236E+06
   489.51    0.3478E+06
   493.12    0.4089E+06
   496.74    0.5089E+06
   500.36    0.6244E+06
   503.97    0.6907E+06
   507.59    0.6898E+06
   511.20    0.6921E+06
   514.82    0.7272E+06
   518.43    0.7501E+06
   522.05    0.7391E+06
   525.66    0.7294E+06
   529.28    0.7439E+06
   532.89    0.7621E+06
   536.51    0.7369E+06
   540.12    0.6814E+06
   543.74    0.6401E+06
   547.35    0.6269E+06
   550.97    0.6320E+06
   554.58    0.6145E+06
   558.20    0.5451E+06
   561.81    0.4639E+06
   565.43    0.4088E+06
   569.04    0.3855E+06
   572.66    0.3905E+06
   576.27    0.4223E+06
   579.89    0.4846E+06
   583.50    0.5874E+06
   587.12    0.7502E+06
   590.73    0.1005E+07
   594.35    0.1397E+07
   597.97    0.1939E+07
   601.58    0.2463E+07
   605.20    0.2558E+07
   608.81    0.2122E+07
   612.43    0.1549E+07
   616.04    0.1100E+07
   619.66    0.7993E+06
   623.27    0.6036E+06
   626.89    0.4752E+06
   630.50    0.3900E+06
   634.12    0.3339E+06
   637.73    0.2991E+06
   641.35    0.2819E+06
   644.96    0.2819E+06
   648.58    0.3022E+06
   652.19    0.3491E+06
   655.81    0.4287E+06
   659.42    0.5295E+06
   663.04    0.5937E+06
   666.65    0.5554E+06
   670.27    0.4421E+06
   673.88    0.3292E+06
   677.50    0.2464E+06
   681.11    0.1904E+06
   684.73    0.1525E+06
   688.35    0.1260E+06
   691.96    0.1068E+06
   695.58    0.9248E+05
   699.19    0.8143E+05
   702.81    0.7270E+05
   706.42    0.6563E+05
   710.04    0.5980E+05
   713.65    0.5492E+05
   717.27    0.5077E+05
   720.88    0.4721E+05
   724.50    0.4411E+05
   728.11    0.4139E+05
   731.73    0.3898E+05
   735.34    0.3684E+05
   738.96    0.3492E+05
   742.57    0.3320E+05
   746.19    0.3163E+05
   749.80    0.3021E+05
   753.42    0.2891E+05
   757.03    0.2771E+05
   760.65    0.2662E+05
   764.26    0.2561E+05
   767.88    0.2468E+05
   771.49    0.2382E+05
   775.11    0.2302E+05
   778.72    0.2229E+05
   782.34    0.2161E+05
   785.96    0.2099E+05
   789.57    0.2042E+05
   793.19    0.1992E+05
   796.80    0.1948E+05
   800.42    0.1914E+05
   804.03    0.1890E+05
   807.65    0.1883E+05
   811.26    0.1900E+05
   814.88    0.1948E+05
   818.49    0.2016E+05
   822.11    0.2040E+05
   825.72    0.1957E+05
   829.34    0.1814E+05
   832.95    0.1684E+05
   836.57    0.1584E+05
   840.18    0.1509E+05
   843.80    0.1450E+05
   847.41    0.1401E+05
   851.03    0.1360E+05
   854.64    0.1323E+05
   858.26    0.1291E+05
   861.87    0.1261E+05
   865.49    0.1233E+05
   869.10    0.1207E+05
   872.72    0.1182E+05
   876.34    0.1159E+05
   879.95    0.1137E+05
   883.57    0.1116E+05
   887.18    0.1096E+05
   890.80    0.1077E+05
   894.41    0.1059E+05
   898.03    0.1041E+05
   901.64    0.1024E+05
   905.26    0.1008E+05
   908.87     9931.    
   912.49     9786.    
   916.10     9649.    
   919.72     9519.    
   923.33     9397.    
   926.95     9285.    
   930.56     9184.    
   934.18     9094.    
   937.79     9020.    
   941.41     8965.    
   945.02     8935.    
   948.64     8939.    
   952.25     8992.    
   955.87     9119.    
   959.48     9359.    
   963.10     9778.    
   966.72    0.1048E+05
   970.33    0.1155E+05
   973.95    0.1287E+05
   977.56    0.1364E+05
   981.18    0.1299E+05
   984.79    0.1151E+05
   988.41    0.1015E+05
   992.02     9181.    
   995.64     8516.    
   999.25     8050.    
  1002.87     7709.    
  1006.48     7449.    
  1010.10     7241.    
  1013.71     7069.    
  1017.33     6923.    
  1020.94     6796.    
  1024.56     6682.    
  1028.17     6580.    
  1031.79     6486.    
  1035.40     6400.    
  1039.02     6320.    
  1042.63     6246.    
  1046.25     6177.    
  1049.86     6112.    
  1053.48     6052.    
  1057.09     5997.    
  1060.71     5947.    
  1064.33     5901.    
  1067.94     5862.    
  1071.56     5829.    
  1075.17     5803.    
  1078.79     5787.    
  1082.40     5782.    
  1086.02     5793.    
  1089.63     5822.    
  1093.25     5879.    
  1096.86     5973.    
  1100.48     6123.    
  1104.09     6354.    
  1107.71     6714.    
  1111.32     7276.    
  1114.94     8160.    
  1118.55     9508.    
  1122.17    0.1128E+05
  1125.78    0.1271E+05
  1129.40    0.1244E+05
  1133.01    0.1074E+05
  1136.63     8938.    
  1140.24     7617.    
  1143.86     6730.    
  1147.47     6135.    
  1151.09     5723.    
  1154.71     5426.    
  1158.32     5204.    
  1161.94     5032.    
  1165.55     4895.    
  1169.17     4783.    
  1172.78     4689.    
  1176.40     4609.    
  1180.01     4539.    
  1183.63     4479.    
  1187.24     4426.    
  1190.86     4379.    
  1194.47     4337.    
  1198.09     4301.    
  1201.70     4270.    
  1205.32     4245.    
  1208.93     4225.    
  1212.55     4212.    
  1216.16     4206.    
  1219.78     4209.    
  1223.39     4223.    
  1227.01     4253.    
  1230.62     4303.    
  1234.24     4381.    
  1237.85     4499.    
  1241.47     4677.    
  1245.08     4948.    
  1248.70     5365.    
  1252.32     6015.    
  1255.93     7016.    
  1259.55     8417.    
  1263.16     9807.    
  1266.78    0.1008E+05
  1270.39     8907.    
  1274.01     7365.    
  1277.62     6157.    
  1281.24     5339.    
  1284.85     4795.    
  1288.47     4424.    
  1292.08     4162.    
  1295.70     3970.    
  1299.31     3824.    
  1302.93     3709.    
  1306.54     3617.    
  1310.16     3541.    
  1313.77     3477.    
  1317.39     3422.    
  1321.00     3375.    
  1324.62     3333.    
  1328.23     3296.    
  1331.85     3263.    
  1335.46     3234.    
  1339.08     3209.    
  1342.70     3187.    
  1346.31     3168.    
  1349.93     3153.    
  1353.54     3143.    
  1357.16     3138.    
  1360.77     3140.    
  1364.39     3151.    
  1368.00     3177.    
  1371.62     3222.    
  1375.23     3300.    
  1378.85     3427.    
  1382.46     3631.    
  1386.08     3933.    
  1389.69     4275.    
  1393.31     4422.    
  1396.92     4206.    
  1400.54     3832.    
  1404.15     3516.    
  1407.77     3297.    
  1411.38     3152.    
  1415.00     3054.    
  1418.61     2987.    
  1422.23     2941.    
  1425.84     2908.    
  1429.46     2886.    
  1433.08     2873.    
  1436.69     2867.    
  1440.31     2869.    
  1443.92     2879.    
  1447.54     2897.    
  1451.15     2925.    
  1454.77     2965.    
  1458.38     3020.    
  1462.00     3094.    
  1465.61     3196.    
  1469.23     3334.    
  1472.84     3523.    
  1476.46     3789.    
  1480.07     4169.    
  1483.69     4727.    
  1487.30     5570.    
  1490.92     6864.    
  1494.53     8807.    
  1498.15    0.1135E+05
  1501.76    0.1338E+05
  1505.38    0.1304E+05
  1508.99    0.1069E+05
  1512.61     8218.    
  1516.22     6416.    
  1519.84     5222.    
  1523.45     4433.    
  1527.07     3900.    
  1530.69     3527.    
  1534.30     3257.    
  1537.92     3058.    
  1541.53     2906.    
  1545.15     2789.    
  1548.76     2697.    
  1552.38     2626.    
  1555.99     2570.    
  1559.61     2530.    
  1563.22     2503.    
  1566.84     2492.    
  1570.45     2500.    
  1574.07     2534.    
  1577.68     2608.    
  1581.30     2739.    
  1584.91     2934.    
  1588.53     3131.    
  1592.14     3159.    
  1595.76     2963.    
  1599.37     2709.    
  1602.99     2506.    
  1606.60     2366.    
  1610.22     2268.    
  1613.83     2199.    
  1617.45     2147.    
  1621.07     2106.    
  1624.68     2073.    
  1628.30     2046.    
  1631.91     2022.    
  1635.53     2001.    
  1639.14     1983.    
  1642.76     1966.    
  1646.37     1950.    
  1649.99     1936.    
  1653.60     1922.    
  1657.22     1909.    
  1660.83     1897.    
  1664.45     1886.    
  1668.06     1874.    
  1671.68     1864.    
  1675.29     1854.    
  1678.91     1844.    
  1682.52     1834.    
  1686.14     1825.    
  1689.75     1816.    
  1693.37     1807.    
  1696.98     1799.    
  1700.60     1791.    
  1704.21     1783.    
  1707.83     1775.    
  1711.44     1768.    
  1715.06     1761.    
  1718.68     1754.    
  1722.29     1747.    
  1725.91     1740.    
  1729.52     1734.    
  1733.14     1728.    
  1736.75     1722.    
  1740.37     1716.    
  1743.98     1710.    
  1747.60     1705.    
  1751.21     1700.    
  1754.83     1695.    
  1758.44     1690.    
  1762.06     1685.    
  1765.67     1681.    
  1769.29     1677.    
  1772.90     1673.    
  1776.52     1669.    
  1780.13     1665.    
  1783.75     1662.    
  1787.36     1659.    
  1790.98     1657.    
  1794.59     1654.    
  1798.21     1652.    
  1801.82     1650.    
  1805.44     1649.    
  1809.06     1647.    
  1812.67     1647.    
  1816.29     1646.    
  1819.90     1646.    
  1823.52     1646.    
  1827.13     1647.    
  1830.75     1648.    
  1834.36     1650.    
  1837.98     1653.    
  1841.59     1656.    
  1845.21     1659.    
  1848.82     1663.    
  1852.44     1668.    
  1856.05     1674.    
  1859.67     1681.    
  1863.28     1689.    
  1866.90     1697.    
  1870.51     1707.    
  1874.13     1719.    
  1877.74     1731.    
  1881.36     1746.    
  1884.97     1762.    
  1888.59     1780.    
  1892.20     1801.    
  1895.82     1824.    
  1899.44     1850.    
  1903.05     1880.    
  1906.67     1914.    
  1910.28     1953.    
  1913.90     1997.    
  1917.51     2048.    
  1921.13     2107.    
  1924.74     2175.    
  1928.36     2254.    
  1931.97     2348.    
  1935.59     2460.    
  1939.20     2594.    
  1942.82     2758.    
  1946.43     2958.    
  1950.05     3209.    
  1953.66     3527.    
  1957.28     3939.    
  1960.89     4486.    
  1964.51     5229.    
  1968.12     6270.    
  1971.74     7776.    
  1975.35    0.1002E+05
  1978.97    0.1344E+05
  1982.58    0.1853E+05
  1986.20    0.2507E+05
  1989.81    0.3010E+05
  1993.43    0.2899E+05
  1997.05    0.2299E+05
  2000.66    0.1688E+05
  2004.28    0.1249E+05
  2007.89     9627.    
  2011.51     7785.    
  2015.12     6589.    
  2018.74     5810.    
  2022.35     5312.    
  2025.97     5017.    
  2029.58     4878.    
  2033.20     4876.    
  2036.81     5003.    
  2040.43     5271.    
  2044.04     5707.    
  2047.66     6363.    
  2051.27     7325.    
  2054.89     8741.    
  2058.50    0.1086E+05
  2062.12    0.1408E+05
  2065.73    0.1902E+05
  2069.35    0.2614E+05
  2072.96    0.3425E+05
  2076.58    0.3817E+05
  2080.19    0.3401E+05
  2083.81    0.2628E+05
  2087.43    0.1988E+05
  2091.04    0.1586E+05
  2094.66    0.1382E+05
  2098.27    0.1333E+05
  2101.89    0.1407E+05
  2105.50    0.1516E+05
  2109.12    0.1494E+05
  2112.73    0.1304E+05
  2116.35    0.1097E+05
  2119.96     9669.    
  2123.58     9237.    
  2127.19     9589.    
  2130.81    0.1053E+05
  2134.42    0.1174E+05
  2138.04    0.1326E+05
  2141.65    0.1509E+05
  2145.27    0.1579E+05
  2148.88    0.1410E+05
  2152.50    0.1139E+05
  2156.11     9190.    
  2159.73     7822.    
  2163.34     7139.    
  2166.96     7014.    
  2170.57     7428.    
  2174.19     8453.    
  2177.80    0.1011E+05
  2181.42    0.1183E+05
  2185.04    0.1221E+05
  2188.65    0.1085E+05
  2192.27     9121.    
  2195.88     7945.    
  2199.50     7431.    
  2203.11     7509.    
  2206.73     8181.    
  2210.34     9543.    
  2213.96    0.1166E+05
  2217.57    0.1404E+05
  2221.19    0.1540E+05
  2224.80    0.1547E+05
  2228.42    0.1568E+05
  2232.03    0.1641E+05
  2235.65    0.1623E+05
  2239.26    0.1459E+05
  2242.88    0.1287E+05
  2246.49    0.1208E+05
  2250.11    0.1239E+05
  2253.72    0.1390E+05
  2257.34    0.1689E+05
  2260.95    0.2184E+05
  2264.57    0.2885E+05
  2268.18    0.3605E+05
  2271.80    0.3916E+05
  2275.42    0.3624E+05
  2279.03    0.3039E+05
  2282.65    0.2590E+05
  2286.26    0.2442E+05
  2289.88    0.2545E+05
  2293.49    0.2689E+05
  2297.11    0.2631E+05
  2300.72    0.2310E+05
  2304.34    0.1825E+05
  2307.95    0.1372E+05
  2311.57    0.1038E+05
  2315.18     8108.    
  2318.80     6547.    
  2322.41     5448.    
  2326.03     4648.    
  2329.64     4048.    
  2333.26     3585.    
  2336.87     3221.    
  2340.49     2928.    
  2344.10     2688.    
  2347.72     2488.    
  2351.33     2321.    
  2354.95     2178.    
  2358.56     2055.    
  2362.18     1948.    
  2365.79     1855.    
  2369.41     1773.    
  2373.03     1700.    
  2376.64     1635.    
  2380.26     1577.    
  2383.87     1524.    
  2387.49     1476.    
  2391.10     1433.    
  2394.72     1393.    
  2398.33     1357.    
  2401.95     1323.    
  2405.56     1293.    
  2409.18     1264.    
  2412.79     1237.    
  2416.41     1213.    
  2420.02     1189.    
  2423.64     1168.    
  2427.25     1147.    
  2430.87     1128.    
  2434.48     1110.    
  2438.10     1093.    
  2441.71     1077.    
  2445.33     1062.    
  2448.94     1048.    
  2452.56     1034.    
  2456.17     1021.    
  2459.79     1008.    
  2463.41     996.5    
  2467.02     985.1    
  2470.64     974.2    
  2474.25     963.8    
  2477.87     953.7    
  2481.48     944.1    
  2485.10     934.8    
  2488.71     925.9    
  2492.33     917.3    
  2495.94     909.0    
  2499.56     901.0    
  2503.17     893.3    
  2506.79     885.8    
  2510.40     878.5    
  2514.02     871.5    
  2517.63     864.7    
  2521.25     858.0    
  2524.86     851.6    
  2528.48     845.4    
  2532.09     839.3    
  2535.71     833.4    
  2539.32     827.6    
  2542.94     822.0    
  2546.55     816.5    
  2550.17     811.2    
  2553.79     806.0    
  2557.40     800.9    
  2561.02     795.9    
  2564.63     791.0    
  2568.25     786.3    
  2571.86     781.6    
  2575.48     777.0    
  2579.09     772.6    
  2582.71     768.2    
  2586.32     763.9    
  2589.94     759.7    
  2593.55     755.6    
  2597.17     751.5    
  2600.78     747.5    
  2604.40     743.6    
  2608.01     739.8    
  2611.63     736.0    
  2615.24     732.3    
  2618.86     728.6    
  2622.47     725.1    
  2626.09     721.5    
  2629.70     718.0    
  2633.32     714.6    
  2636.93     711.3    
  2640.55     707.9    
  2644.16     704.7    
  2647.78     701.4    
  2651.40     698.3    
  2655.01     695.1    
  2658.63     692.0    
  2662.24     689.0    
  2665.86     686.0    
  2669.47     683.0    
  2673.09     680.1    
  2676.70     677.2    
  2680.32     674.3    
  2683.93     671.5    
  2687.55     668.7    
  2691.16     666.0    
  2694.78     663.2    
  2698.39     660.5    
  2702.01     657.9    
  2705.62     655.3    
  2709.24     652.7    
  2712.85     650.1    
  2716.47     647.5    
  2720.08     645.0    
  2723.70     642.5    
  2727.31     640.1    
  2730.93     637.6    
  2734.54     635.2    
  2738.16     632.9    
  2741.78     630.5    
  2745.39     628.2    
  2749.01     625.8    
  2752.62     623.5    
  2756.24     621.3    
  2759.85     619.0    
  2763.47     616.8    
  2767.08     614.6    
  2770.70     612.4    
  2774.31     610.2    
  2777.93     608.1    
  2781.54     606.0    
  2785.16     603.9    
  2788.77     601.8    
  2792.39     599.7    
  2796.00     597.7    
  2799.62     595.6    
  2803.23     593.6    
  2806.85     591.6    
  2810.46     589.6    
  2814.08     587.7    
  2817.69     585.7    
  2821.31     583.8    
  2824.92     581.9    
  2828.54     580.0    
  2832.15     578.1    
  2835.77     576.2    
  2839.39     574.4    
  2843.00     572.5    
  2846.62     570.7    
  2850.23     568.9    
  2853.85     567.1    
  2857.46     565.3    
  2861.08     563.5    
  2864.69     561.8    
  2868.31     560.0    
  2871.92     558.3    
  2875.54     556.6    
  2879.15     554.9    
  2882.77     553.2    
  2886.38     551.5    
  2890.00     549.8    
  2893.61     548.2    
  2897.23     546.6    
  2900.84     544.9    
  2904.46     543.3    
  2908.07     541.7    
  2911.69     540.1    
  2915.30     538.5    
  2918.92     537.0    
  2922.53     535.4    
  2926.15     533.9    
  2929.77     532.3    
  2933.38     530.8    
  2937.00     529.3    
  2940.61     527.8    
  2944.23     526.3    
  2947.84     524.8    
  2951.46     523.4    
  2955.07     521.9    
  2958.69     520.5    
  2962.30     519.0    
  2965.92     517.6    
  2969.53     516.2    
  2973.15     514.8    
  2976.76     513.4    
  2980.38     512.0    
  2983.99     510.7    
  2987.61     509.3    
  2991.22     508.0    
  2994.84     506.6    
  2998.45     505.3    
  3002.07     504.0    
  3005.68     502.7    
  3009.30     501.4    
  3012.91     500.1    
  3016.53     498.8    
  3020.15     497.6    
  3023.76     496.3    
  3027.38     495.1    
  3030.99     493.9    
  3034.61     492.6    
  3038.22     491.4    
  3041.84     490.2    
  3045.45     489.0    
  3049.07     487.9    
  3052.68     486.7    
  3056.30     485.5    
  3059.91     484.4    
  3063.53     483.3    
  3067.14     482.1    
  3070.76     481.0    
  3074.37     479.9    
  3077.99     478.9    
  3081.60     477.8    
  3085.22     476.7    
  3088.83     475.7    
  3092.45     474.6    
  3096.06     473.6    
  3099.68     472.6    
  3103.29     471.6    
  3106.91     470.6    
  3110.52     469.6    
  3114.14     468.7    
  3117.76     467.7    
  3121.37     466.8    
  3124.99     465.9    
  3128.60     465.0    
  3132.22     464.1    
  3135.83     463.2    
  3139.45     462.3    
  3143.06     461.5    
  3146.68     460.7    
  3150.29     459.9    
  3153.91     459.1    
  3157.52     458.3    
  3161.14     457.5    
  3164.75     456.8    
  3168.37     456.1    
  3171.98     455.4    
  3175.60     454.7    
  3179.21     454.0    
  3182.83     453.4    
  3186.44     452.8    
  3190.06     452.2    
  3193.67     451.6    
  3197.29     451.1    
  3200.90     450.5    
  3204.52     450.1    
  3208.14     449.6    
  3211.75     449.2    
  3215.37     448.8    
  3218.98     448.4    
  3222.60     448.0    
  3226.21     447.7    
  3229.83     447.5    
  3233.44     447.2    
  3237.06     447.1    
  3240.67     446.9    
  3244.29     446.8    
  3247.90     446.8    
  3251.52     446.8    
  3255.13     446.8    
  3258.75     446.9    
  3262.36     447.1    
  3265.98     447.3    
  3269.59     447.6    
  3273.21     447.9    
  3276.82     448.3    
  3280.44     448.9    
  3284.05     449.4    
  3287.67     450.1    
  3291.28     450.9    
  3294.90     451.8    
  3298.51     452.8    
  3302.13     453.9    
  3305.75     455.1    
  3309.36     456.5    
  3312.98     458.0    
  3316.59     459.6    
  3320.21     461.5    
  3323.82     463.5    
  3327.44     465.7    
  3331.05     468.2    
  3334.67     470.9    
  3338.28     473.8    
  3341.90     477.1    
  3345.51     480.6    
  3349.13     484.5    
  3352.74     488.8    
  3356.36     493.5    
  3359.97     498.7    
  3363.59     504.4    
  3367.20     510.7    
  3370.82     517.7    
  3374.43     525.4    
  3378.05     533.9    
  3381.66     543.3    
  3385.28     553.8    
  3388.89     565.5    
  3392.51     578.7    
  3396.13     593.4    
  3399.74     610.0    
  3403.36     628.7    
  3406.97     649.9    
  3410.59     674.2    
  3414.20     701.9    
  3417.82     733.9    
  3421.43     770.9    
  3425.05     814.1    
  3428.66     864.9    
  3432.28     925.1    
  3435.89     997.0    
  3439.51     1084.    
  3443.12     1190.    
  3446.74     1322.    
  3450.35     1487.    
  3453.97     1698.    
  3457.58     1974.    
  3461.20     2341.    
  3464.81     2842.    
  3468.43     3547.    
  3472.04     4569.    
  3475.66     6098.    
  3479.27     8430.    
  3482.89    0.1192E+05
  3486.51    0.1648E+05
  3490.12    0.2018E+05
  3493.74    0.1967E+05
  3497.35    0.1551E+05
  3500.97    0.1109E+05
  3504.58     7857.    
  3508.20     5720.    
  3511.81     4315.    
  3515.43     3369.    
  3519.04     2712.    
  3522.66     2242.    
  3526.27     1895.    
  3529.89     1633.    
  3533.50     1431.    
  3537.12     1272.    
  3540.73     1145.    
  3544.35     1041.    
  3547.96     956.1    
  3551.58     885.2    
  3555.19     825.6    
