
 ------------------------------------------------------------
     normal          Raman Scattering Plot
 ------------------------------------------------------------
 Excitation wavelength  514.50 nm
 Convolution lineshape is lorentzian  
 FWHM   20.00  1/cm
 ------------------------------------------------------------
 ------------------------------------------------------------
 # of frequencies :     6
 ------------------------------------------------------------
 #  freq [ 1/cm]  S [Ang**4/amu]
 ------------------------------------------------------------
   1   701.38        0.4688
   2   774.41        0.0000
   3   774.41        0.0000
   4  1972.75       12.4379
   5  3406.55        0.0000
   6  3519.01       67.7714
 ------------------------------------------------------------
   644.32    0.4813E-04
   647.26    0.5323E-04
   650.20    0.5920E-04
   653.14    0.6622E-04
   656.08    0.7457E-04
   659.02    0.8460E-04
   661.96    0.9678E-04
   664.90    0.1117E-03
   667.84    0.1304E-03
   670.78    0.1539E-03
   673.72    0.1842E-03
   676.66    0.2240E-03
   679.60    0.2771E-03
   682.54    0.3496E-03
   685.48    0.4506E-03
   688.42    0.5930E-03
   691.37    0.7927E-03
   694.31    0.1058E-02
   697.25    0.1355E-02
   700.19    0.1564E-02
   703.13    0.1539E-02
   706.07    0.1300E-02
   709.01    0.1003E-02
   711.95    0.7494E-03
   714.89    0.5618E-03
   717.83    0.4285E-03
   720.77    0.3339E-03
   723.71    0.2657E-03
   726.65    0.2155E-03
   729.59    0.1779E-03
   732.53    0.1490E-03
   735.47    0.1265E-03
   738.41    0.1087E-03
   741.36    0.9435E-04
   744.30    0.8264E-04
   747.24    0.7297E-04
   750.18    0.6491E-04
   753.12    0.5811E-04
   756.06    0.5233E-04
   759.00    0.4739E-04
   761.94    0.4312E-04
   764.88    0.3941E-04
   767.82    0.3616E-04
   770.76    0.3331E-04
   773.70    0.3080E-04
   776.64    0.2856E-04
   779.58    0.2657E-04
   782.52    0.2479E-04
   785.46    0.2319E-04
   788.40    0.2174E-04
   791.34    0.2043E-04
   794.29    0.1925E-04
   797.23    0.1817E-04
   800.17    0.1718E-04
   803.11    0.1628E-04
   806.05    0.1545E-04
   808.99    0.1469E-04
   811.93    0.1399E-04
   814.87    0.1334E-04
   817.81    0.1274E-04
   820.75    0.1218E-04
   823.69    0.1167E-04
   826.63    0.1119E-04
   829.57    0.1074E-04
   832.51    0.1032E-04
   835.45    0.9931E-05
   838.39    0.9565E-05
   841.33    0.9223E-05
   844.28    0.8902E-05
   847.22    0.8600E-05
   850.16    0.8316E-05
   853.10    0.8049E-05
   856.04    0.7797E-05
   858.98    0.7560E-05
   861.92    0.7335E-05
   864.86    0.7123E-05
   867.80    0.6922E-05
   870.74    0.6732E-05
   873.68    0.6552E-05
   876.62    0.6381E-05
   879.56    0.6219E-05
   882.50    0.6065E-05
   885.44    0.5918E-05
   888.38    0.5779E-05
   891.32    0.5646E-05
   894.26    0.5520E-05
   897.21    0.5399E-05
   900.15    0.5284E-05
   903.09    0.5175E-05
   906.03    0.5070E-05
   908.97    0.4970E-05
   911.91    0.4875E-05
   914.85    0.4783E-05
   917.79    0.4696E-05
   920.73    0.4613E-05
   923.67    0.4533E-05
   926.61    0.4456E-05
   929.55    0.4383E-05
   932.49    0.4313E-05
   935.43    0.4245E-05
   938.37    0.4181E-05
   941.31    0.4119E-05
   944.25    0.4059E-05
   947.20    0.4003E-05
   950.14    0.3948E-05
   953.08    0.3895E-05
   956.02    0.3845E-05
   958.96    0.3797E-05
   961.90    0.3750E-05
   964.84    0.3705E-05
   967.78    0.3662E-05
   970.72    0.3621E-05
   973.66    0.3582E-05
   976.60    0.3544E-05
   979.54    0.3507E-05
   982.48    0.3472E-05
   985.42    0.3438E-05
   988.36    0.3406E-05
   991.30    0.3375E-05
   994.24    0.3345E-05
   997.19    0.3316E-05
  1000.13    0.3288E-05
  1003.07    0.3262E-05
  1006.01    0.3236E-05
  1008.95    0.3212E-05
  1011.89    0.3188E-05
  1014.83    0.3166E-05
  1017.77    0.3144E-05
  1020.71    0.3123E-05
  1023.65    0.3104E-05
  1026.59    0.3085E-05
  1029.53    0.3066E-05
  1032.47    0.3049E-05
  1035.41    0.3032E-05
  1038.35    0.3016E-05
  1041.29    0.3001E-05
  1044.23    0.2987E-05
  1047.17    0.2973E-05
  1050.12    0.2960E-05
  1053.06    0.2947E-05
  1056.00    0.2935E-05
  1058.94    0.2924E-05
  1061.88    0.2913E-05
  1064.82    0.2903E-05
  1067.76    0.2893E-05
  1070.70    0.2884E-05
  1073.64    0.2875E-05
  1076.58    0.2867E-05
  1079.52    0.2860E-05
  1082.46    0.2853E-05
  1085.40    0.2846E-05
  1088.34    0.2840E-05
  1091.28    0.2834E-05
  1094.22    0.2829E-05
  1097.16    0.2825E-05
  1100.11    0.2820E-05
  1103.05    0.2816E-05
  1105.99    0.2813E-05
  1108.93    0.2810E-05
  1111.87    0.2807E-05
  1114.81    0.2805E-05
  1117.75    0.2803E-05
  1120.69    0.2802E-05
  1123.63    0.2800E-05
  1126.57    0.2800E-05
  1129.51    0.2799E-05
  1132.45    0.2799E-05
  1135.39    0.2800E-05
  1138.33    0.2800E-05
  1141.27    0.2801E-05
  1144.21    0.2803E-05
  1147.15    0.2805E-05
  1150.09    0.2807E-05
  1153.04    0.2809E-05
  1155.98    0.2812E-05
  1158.92    0.2815E-05
  1161.86    0.2818E-05
  1164.80    0.2822E-05
  1167.74    0.2826E-05
  1170.68    0.2830E-05
  1173.62    0.2835E-05
  1176.56    0.2840E-05
  1179.50    0.2845E-05
  1182.44    0.2850E-05
  1185.38    0.2856E-05
  1188.32    0.2862E-05
  1191.26    0.2869E-05
  1194.20    0.2875E-05
  1197.14    0.2882E-05
  1200.08    0.2890E-05
  1203.03    0.2897E-05
  1205.97    0.2905E-05
  1208.91    0.2913E-05
  1211.85    0.2922E-05
  1214.79    0.2931E-05
  1217.73    0.2940E-05
  1220.67    0.2949E-05
  1223.61    0.2959E-05
  1226.55    0.2969E-05
  1229.49    0.2979E-05
  1232.43    0.2990E-05
  1235.37    0.3001E-05
  1238.31    0.3012E-05
  1241.25    0.3023E-05
  1244.19    0.3035E-05
  1247.13    0.3047E-05
  1250.07    0.3059E-05
  1253.01    0.3072E-05
  1255.96    0.3085E-05
  1258.90    0.3098E-05
  1261.84    0.3112E-05
  1264.78    0.3126E-05
  1267.72    0.3140E-05
  1270.66    0.3154E-05
  1273.60    0.3169E-05
  1276.54    0.3184E-05
  1279.48    0.3200E-05
  1282.42    0.3215E-05
  1285.36    0.3231E-05
  1288.30    0.3248E-05
  1291.24    0.3265E-05
  1294.18    0.3282E-05
  1297.12    0.3299E-05
  1300.06    0.3317E-05
  1303.00    0.3335E-05
  1305.95    0.3354E-05
  1308.89    0.3372E-05
  1311.83    0.3392E-05
  1314.77    0.3411E-05
  1317.71    0.3431E-05
  1320.65    0.3451E-05
  1323.59    0.3472E-05
  1326.53    0.3493E-05
  1329.47    0.3514E-05
  1332.41    0.3536E-05
  1335.35    0.3558E-05
  1338.29    0.3581E-05
  1341.23    0.3604E-05
  1344.17    0.3627E-05
  1347.11    0.3651E-05
  1350.05    0.3675E-05
  1352.99    0.3700E-05
  1355.93    0.3725E-05
  1358.88    0.3751E-05
  1361.82    0.3777E-05
  1364.76    0.3803E-05
  1367.70    0.3830E-05
  1370.64    0.3857E-05
  1373.58    0.3885E-05
  1376.52    0.3913E-05
  1379.46    0.3942E-05
  1382.40    0.3972E-05
  1385.34    0.4001E-05
  1388.28    0.4032E-05
  1391.22    0.4063E-05
  1394.16    0.4094E-05
  1397.10    0.4126E-05
  1400.04    0.4159E-05
  1402.98    0.4192E-05
  1405.92    0.4225E-05
  1408.87    0.4259E-05
  1411.81    0.4294E-05
  1414.75    0.4330E-05
  1417.69    0.4366E-05
  1420.63    0.4403E-05
  1423.57    0.4440E-05
  1426.51    0.4478E-05
  1429.45    0.4517E-05
  1432.39    0.4556E-05
  1435.33    0.4596E-05
  1438.27    0.4637E-05
  1441.21    0.4678E-05
  1444.15    0.4720E-05
  1447.09    0.4763E-05
  1450.03    0.4807E-05
  1452.97    0.4852E-05
  1455.91    0.4897E-05
  1458.85    0.4943E-05
  1461.80    0.4990E-05
  1464.74    0.5038E-05
  1467.68    0.5087E-05
  1470.62    0.5137E-05
  1473.56    0.5187E-05
  1476.50    0.5239E-05
  1479.44    0.5291E-05
  1482.38    0.5345E-05
  1485.32    0.5399E-05
  1488.26    0.5455E-05
  1491.20    0.5511E-05
  1494.14    0.5569E-05
  1497.08    0.5628E-05
  1500.02    0.5687E-05
  1502.96    0.5748E-05
  1505.90    0.5811E-05
  1508.84    0.5874E-05
  1511.79    0.5939E-05
  1514.73    0.6005E-05
  1517.67    0.6072E-05
  1520.61    0.6141E-05
  1523.55    0.6210E-05
  1526.49    0.6282E-05
  1529.43    0.6355E-05
  1532.37    0.6429E-05
  1535.31    0.6505E-05
  1538.25    0.6582E-05
  1541.19    0.6661E-05
  1544.13    0.6742E-05
  1547.07    0.6824E-05
  1550.01    0.6908E-05
  1552.95    0.6994E-05
  1555.89    0.7082E-05
  1558.83    0.7172E-05
  1561.77    0.7263E-05
  1564.72    0.7357E-05
  1567.66    0.7453E-05
  1570.60    0.7550E-05
  1573.54    0.7650E-05
  1576.48    0.7753E-05
  1579.42    0.7857E-05
  1582.36    0.7964E-05
  1585.30    0.8073E-05
  1588.24    0.8185E-05
  1591.18    0.8300E-05
  1594.12    0.8417E-05
  1597.06    0.8537E-05
  1600.00    0.8659E-05
  1602.94    0.8785E-05
  1605.88    0.8914E-05
  1608.82    0.9046E-05
  1611.76    0.9181E-05
  1614.71    0.9319E-05
  1617.65    0.9461E-05
  1620.59    0.9607E-05
  1623.53    0.9756E-05
  1626.47    0.9909E-05
  1629.41    0.1007E-04
  1632.35    0.1023E-04
  1635.29    0.1039E-04
  1638.23    0.1056E-04
  1641.17    0.1074E-04
  1644.11    0.1091E-04
  1647.05    0.1110E-04
  1649.99    0.1129E-04
  1652.93    0.1148E-04
  1655.87    0.1168E-04
  1658.81    0.1189E-04
  1661.75    0.1210E-04
  1664.69    0.1231E-04
  1667.64    0.1254E-04
  1670.58    0.1277E-04
  1673.52    0.1300E-04
  1676.46    0.1325E-04
  1679.40    0.1350E-04
  1682.34    0.1375E-04
  1685.28    0.1402E-04
  1688.22    0.1430E-04
  1691.16    0.1458E-04
  1694.10    0.1487E-04
  1697.04    0.1517E-04
  1699.98    0.1548E-04
  1702.92    0.1580E-04
  1705.86    0.1614E-04
  1708.80    0.1648E-04
  1711.74    0.1684E-04
  1714.68    0.1720E-04
  1717.63    0.1758E-04
  1720.57    0.1797E-04
  1723.51    0.1838E-04
  1726.45    0.1880E-04
  1729.39    0.1924E-04
  1732.33    0.1969E-04
  1735.27    0.2016E-04
  1738.21    0.2065E-04
  1741.15    0.2116E-04
  1744.09    0.2168E-04
  1747.03    0.2223E-04
  1749.97    0.2280E-04
  1752.91    0.2339E-04
  1755.85    0.2400E-04
  1758.79    0.2464E-04
  1761.73    0.2531E-04
  1764.67    0.2600E-04
  1767.61    0.2673E-04
  1770.56    0.2749E-04
  1773.50    0.2828E-04
  1776.44    0.2910E-04
  1779.38    0.2997E-04
  1782.32    0.3087E-04
  1785.26    0.3182E-04
  1788.20    0.3281E-04
  1791.14    0.3385E-04
  1794.08    0.3494E-04
  1797.02    0.3609E-04
  1799.96    0.3730E-04
  1802.90    0.3856E-04
  1805.84    0.3990E-04
  1808.78    0.4131E-04
  1811.72    0.4279E-04
  1814.66    0.4436E-04
  1817.60    0.4602E-04
  1820.55    0.4777E-04
  1823.49    0.4963E-04
  1826.43    0.5160E-04
  1829.37    0.5369E-04
  1832.31    0.5592E-04
  1835.25    0.5828E-04
  1838.19    0.6080E-04
  1841.13    0.6350E-04
  1844.07    0.6637E-04
  1847.01    0.6945E-04
  1849.95    0.7275E-04
  1852.89    0.7630E-04
  1855.83    0.8011E-04
  1858.77    0.8422E-04
  1861.71    0.8865E-04
  1864.65    0.9345E-04
  1867.59    0.9865E-04
  1870.53    0.1043E-03
  1873.48    0.1105E-03
  1876.42    0.1172E-03
  1879.36    0.1245E-03
  1882.30    0.1326E-03
  1885.24    0.1415E-03
  1888.18    0.1513E-03
  1891.12    0.1621E-03
  1894.06    0.1742E-03
  1897.00    0.1877E-03
  1899.94    0.2028E-03
  1902.88    0.2198E-03
  1905.82    0.2390E-03
  1908.76    0.2609E-03
  1911.70    0.2859E-03
  1914.64    0.3146E-03
  1917.58    0.3478E-03
  1920.52    0.3865E-03
  1923.47    0.4320E-03
  1926.41    0.4860E-03
  1929.35    0.5505E-03
  1932.29    0.6285E-03
  1935.23    0.7239E-03
  1938.17    0.8422E-03
  1941.11    0.9910E-03
  1944.05    0.1181E-02
  1946.99    0.1429E-02
  1949.93    0.1757E-02
  1952.87    0.2203E-02
  1955.81    0.2819E-02
  1958.75    0.3685E-02
  1961.69    0.4906E-02
  1964.63    0.6574E-02
  1967.57    0.8600E-02
  1970.51    0.1038E-01
  1973.45    0.1085E-01
  1976.40    0.9620E-02
  1979.34    0.7601E-02
  1982.28    0.5713E-02
  1985.22    0.4267E-02
  1988.16    0.3231E-02
  1991.10    0.2497E-02
  1994.04    0.1971E-02
  1996.98    0.1587E-02
  1999.92    0.1301E-02
  2002.86    0.1084E-02
  2005.80    0.9150E-03
  2008.74    0.7821E-03
  2011.68    0.6756E-03
  2014.62    0.5891E-03
  2017.56    0.5180E-03
  2020.50    0.4589E-03
  2023.44    0.4093E-03
  2026.39    0.3672E-03
  2029.33    0.3313E-03
  2032.27    0.3004E-03
  2035.21    0.2735E-03
  2038.15    0.2501E-03
  2041.09    0.2296E-03
  2044.03    0.2115E-03
  2046.97    0.1955E-03
  2049.91    0.1812E-03
  2052.85    0.1684E-03
  2055.79    0.1569E-03
  2058.73    0.1466E-03
  2061.67    0.1373E-03
  2064.61    0.1288E-03
  2067.55    0.1211E-03
  2070.49    0.1141E-03
  2073.43    0.1076E-03
  2076.37    0.1017E-03
  2079.32    0.9633E-04
  2082.26    0.9133E-04
  2085.20    0.8672E-04
  2088.14    0.8245E-04
  2091.08    0.7850E-04
  2094.02    0.7483E-04
  2096.96    0.7141E-04
  2099.90    0.6822E-04
  2102.84    0.6525E-04
  2105.78    0.6247E-04
  2108.72    0.5987E-04
  2111.66    0.5743E-04
  2114.60    0.5514E-04
  2117.54    0.5299E-04
  2120.48    0.5096E-04
  2123.42    0.4906E-04
  2126.36    0.4726E-04
  2129.31    0.4556E-04
  2132.25    0.4395E-04
  2135.19    0.4243E-04
  2138.13    0.4099E-04
  2141.07    0.3962E-04
  2144.01    0.3833E-04
  2146.95    0.3710E-04
  2149.89    0.3593E-04
  2152.83    0.3481E-04
  2155.77    0.3375E-04
  2158.71    0.3274E-04
  2161.65    0.3178E-04
  2164.59    0.3086E-04
  2167.53    0.2998E-04
  2170.47    0.2914E-04
  2173.41    0.2834E-04
  2176.35    0.2758E-04
  2179.29    0.2684E-04
  2182.24    0.2614E-04
  2185.18    0.2546E-04
  2188.12    0.2482E-04
  2191.06    0.2420E-04
  2194.00    0.2360E-04
  2196.94    0.2303E-04
  2199.88    0.2248E-04
  2202.82    0.2195E-04
  2205.76    0.2144E-04
  2208.70    0.2095E-04
  2211.64    0.2048E-04
  2214.58    0.2002E-04
  2217.52    0.1959E-04
  2220.46    0.1916E-04
  2223.40    0.1876E-04
  2226.34    0.1836E-04
  2229.28    0.1799E-04
  2232.23    0.1762E-04
  2235.17    0.1727E-04
  2238.11    0.1692E-04
  2241.05    0.1659E-04
  2243.99    0.1627E-04
  2246.93    0.1597E-04
  2249.87    0.1567E-04
  2252.81    0.1538E-04
  2255.75    0.1510E-04
  2258.69    0.1483E-04
  2261.63    0.1456E-04
  2264.57    0.1431E-04
  2267.51    0.1406E-04
  2270.45    0.1382E-04
  2273.39    0.1359E-04
  2276.33    0.1336E-04
  2279.27    0.1315E-04
  2282.21    0.1293E-04
  2285.16    0.1273E-04
  2288.10    0.1253E-04
  2291.04    0.1233E-04
  2293.98    0.1215E-04
  2296.92    0.1196E-04
  2299.86    0.1178E-04
  2302.80    0.1161E-04
  2305.74    0.1144E-04
  2308.68    0.1128E-04
  2311.62    0.1112E-04
  2314.56    0.1097E-04
  2317.50    0.1081E-04
  2320.44    0.1067E-04
  2323.38    0.1053E-04
  2326.32    0.1039E-04
  2329.26    0.1025E-04
  2332.20    0.1012E-04
  2335.15    0.9992E-05
  2338.09    0.9867E-05
  2341.03    0.9745E-05
  2343.97    0.9626E-05
  2346.91    0.9511E-05
  2349.85    0.9398E-05
  2352.79    0.9289E-05
  2355.73    0.9182E-05
  2358.67    0.9077E-05
  2361.61    0.8976E-05
  2364.55    0.8877E-05
  2367.49    0.8780E-05
  2370.43    0.8686E-05
  2373.37    0.8594E-05
  2376.31    0.8504E-05
  2379.25    0.8417E-05
  2382.19    0.8331E-05
  2385.13    0.8248E-05
  2388.08    0.8167E-05
  2391.02    0.8088E-05
  2393.96    0.8010E-05
  2396.90    0.7935E-05
  2399.84    0.7861E-05
  2402.78    0.7789E-05
  2405.72    0.7719E-05
  2408.66    0.7651E-05
  2411.60    0.7584E-05
  2414.54    0.7519E-05
  2417.48    0.7455E-05
  2420.42    0.7393E-05
  2423.36    0.7332E-05
  2426.30    0.7273E-05
  2429.24    0.7215E-05
  2432.18    0.7159E-05
  2435.12    0.7104E-05
  2438.07    0.7050E-05
  2441.01    0.6998E-05
  2443.95    0.6947E-05
  2446.89    0.6897E-05
  2449.83    0.6848E-05
  2452.77    0.6801E-05
  2455.71    0.6754E-05
  2458.65    0.6709E-05
  2461.59    0.6665E-05
  2464.53    0.6622E-05
  2467.47    0.6580E-05
  2470.41    0.6539E-05
  2473.35    0.6499E-05
  2476.29    0.6460E-05
  2479.23    0.6422E-05
  2482.17    0.6385E-05
  2485.11    0.6349E-05
  2488.05    0.6314E-05
  2491.00    0.6280E-05
  2493.94    0.6247E-05
  2496.88    0.6214E-05
  2499.82    0.6183E-05
  2502.76    0.6152E-05
  2505.70    0.6122E-05
  2508.64    0.6093E-05
  2511.58    0.6065E-05
  2514.52    0.6037E-05
  2517.46    0.6011E-05
  2520.40    0.5985E-05
  2523.34    0.5959E-05
  2526.28    0.5935E-05
  2529.22    0.5911E-05
  2532.16    0.5888E-05
  2535.10    0.5866E-05
  2538.04    0.5844E-05
  2540.99    0.5823E-05
  2543.93    0.5803E-05
  2546.87    0.5783E-05
  2549.81    0.5764E-05
  2552.75    0.5746E-05
  2555.69    0.5728E-05
  2558.63    0.5711E-05
  2561.57    0.5695E-05
  2564.51    0.5679E-05
  2567.45    0.5664E-05
  2570.39    0.5649E-05
  2573.33    0.5635E-05
  2576.27    0.5622E-05
  2579.21    0.5609E-05
  2582.15    0.5596E-05
  2585.09    0.5585E-05
  2588.03    0.5573E-05
  2590.97    0.5563E-05
  2593.92    0.5553E-05
  2596.86    0.5543E-05
  2599.80    0.5534E-05
  2602.74    0.5526E-05
  2605.68    0.5518E-05
  2608.62    0.5510E-05
  2611.56    0.5504E-05
  2614.50    0.5497E-05
  2617.44    0.5491E-05
  2620.38    0.5486E-05
  2623.32    0.5481E-05
  2626.26    0.5477E-05
  2629.20    0.5473E-05
  2632.14    0.5470E-05
  2635.08    0.5467E-05
  2638.02    0.5464E-05
  2640.96    0.5462E-05
  2643.91    0.5461E-05
  2646.85    0.5460E-05
  2649.79    0.5460E-05
  2652.73    0.5460E-05
  2655.67    0.5460E-05
  2658.61    0.5461E-05
  2661.55    0.5463E-05
  2664.49    0.5465E-05
  2667.43    0.5467E-05
  2670.37    0.5470E-05
  2673.31    0.5473E-05
  2676.25    0.5477E-05
  2679.19    0.5481E-05
  2682.13    0.5486E-05
  2685.07    0.5491E-05
  2688.01    0.5497E-05
  2690.95    0.5503E-05
  2693.90    0.5510E-05
  2696.84    0.5517E-05
  2699.78    0.5524E-05
  2702.72    0.5532E-05
  2705.66    0.5541E-05
  2708.60    0.5550E-05
  2711.54    0.5559E-05
  2714.48    0.5569E-05
  2717.42    0.5579E-05
  2720.36    0.5590E-05
  2723.30    0.5602E-05
  2726.24    0.5613E-05
  2729.18    0.5626E-05
  2732.12    0.5638E-05
  2735.06    0.5652E-05
  2738.00    0.5665E-05
  2740.94    0.5679E-05
  2743.88    0.5694E-05
  2746.83    0.5709E-05
  2749.77    0.5725E-05
  2752.71    0.5741E-05
  2755.65    0.5758E-05
  2758.59    0.5775E-05
  2761.53    0.5793E-05
  2764.47    0.5811E-05
  2767.41    0.5829E-05
  2770.35    0.5849E-05
  2773.29    0.5868E-05
  2776.23    0.5889E-05
  2779.17    0.5909E-05
  2782.11    0.5931E-05
  2785.05    0.5952E-05
  2787.99    0.5975E-05
  2790.93    0.5998E-05
  2793.87    0.6021E-05
  2796.82    0.6045E-05
  2799.76    0.6070E-05
  2802.70    0.6095E-05
  2805.64    0.6121E-05
  2808.58    0.6147E-05
  2811.52    0.6174E-05
  2814.46    0.6201E-05
  2817.40    0.6229E-05
  2820.34    0.6258E-05
  2823.28    0.6287E-05
  2826.22    0.6317E-05
  2829.16    0.6348E-05
  2832.10    0.6379E-05
  2835.04    0.6411E-05
  2837.98    0.6443E-05
  2840.92    0.6476E-05
  2843.86    0.6510E-05
  2846.80    0.6545E-05
  2849.75    0.6580E-05
  2852.69    0.6616E-05
  2855.63    0.6652E-05
  2858.57    0.6689E-05
  2861.51    0.6727E-05
  2864.45    0.6766E-05
  2867.39    0.6805E-05
  2870.33    0.6845E-05
  2873.27    0.6886E-05
  2876.21    0.6928E-05
  2879.15    0.6970E-05
  2882.09    0.7014E-05
  2885.03    0.7058E-05
  2887.97    0.7103E-05
  2890.91    0.7148E-05
  2893.85    0.7195E-05
  2896.79    0.7242E-05
  2899.74    0.7291E-05
  2902.68    0.7340E-05
  2905.62    0.7390E-05
  2908.56    0.7441E-05
  2911.50    0.7493E-05
  2914.44    0.7546E-05
  2917.38    0.7600E-05
  2920.32    0.7654E-05
  2923.26    0.7710E-05
  2926.20    0.7767E-05
  2929.14    0.7825E-05
  2932.08    0.7884E-05
  2935.02    0.7944E-05
  2937.96    0.8005E-05
  2940.90    0.8067E-05
  2943.84    0.8130E-05
  2946.78    0.8195E-05
  2949.72    0.8261E-05
  2952.67    0.8327E-05
  2955.61    0.8395E-05
  2958.55    0.8465E-05
  2961.49    0.8535E-05
  2964.43    0.8607E-05
  2967.37    0.8680E-05
  2970.31    0.8755E-05
  2973.25    0.8831E-05
  2976.19    0.8908E-05
  2979.13    0.8987E-05
  2982.07    0.9067E-05
  2985.01    0.9149E-05
  2987.95    0.9232E-05
  2990.89    0.9317E-05
  2993.83    0.9403E-05
  2996.77    0.9491E-05
  2999.71    0.9580E-05
  3002.66    0.9672E-05
  3005.60    0.9765E-05
  3008.54    0.9859E-05
  3011.48    0.9956E-05
  3014.42    0.1005E-04
  3017.36    0.1015E-04
  3020.30    0.1026E-04
  3023.24    0.1036E-04
  3026.18    0.1047E-04
  3029.12    0.1058E-04
  3032.06    0.1069E-04
  3035.00    0.1080E-04
  3037.94    0.1091E-04
  3040.88    0.1103E-04
  3043.82    0.1115E-04
  3046.76    0.1127E-04
  3049.70    0.1140E-04
  3052.64    0.1152E-04
  3055.59    0.1165E-04
  3058.53    0.1178E-04
  3061.47    0.1192E-04
  3064.41    0.1206E-04
  3067.35    0.1220E-04
  3070.29    0.1234E-04
  3073.23    0.1248E-04
  3076.17    0.1263E-04
  3079.11    0.1279E-04
  3082.05    0.1294E-04
  3084.99    0.1310E-04
  3087.93    0.1326E-04
  3090.87    0.1343E-04
  3093.81    0.1360E-04
  3096.75    0.1377E-04
  3099.69    0.1395E-04
  3102.63    0.1413E-04
  3105.58    0.1431E-04
  3108.52    0.1450E-04
  3111.46    0.1469E-04
  3114.40    0.1489E-04
  3117.34    0.1509E-04
  3120.28    0.1530E-04
  3123.22    0.1551E-04
  3126.16    0.1572E-04
  3129.10    0.1595E-04
  3132.04    0.1617E-04
  3134.98    0.1640E-04
  3137.92    0.1664E-04
  3140.86    0.1688E-04
  3143.80    0.1713E-04
  3146.74    0.1738E-04
  3149.68    0.1765E-04
  3152.62    0.1791E-04
  3155.56    0.1819E-04
  3158.51    0.1847E-04
  3161.45    0.1875E-04
  3164.39    0.1905E-04
  3167.33    0.1935E-04
  3170.27    0.1966E-04
  3173.21    0.1998E-04
  3176.15    0.2031E-04
  3179.09    0.2064E-04
  3182.03    0.2099E-04
  3184.97    0.2134E-04
  3187.91    0.2170E-04
  3190.85    0.2208E-04
  3193.79    0.2246E-04
  3196.73    0.2285E-04
  3199.67    0.2326E-04
  3202.61    0.2367E-04
  3205.55    0.2410E-04
  3208.50    0.2454E-04
  3211.44    0.2500E-04
  3214.38    0.2546E-04
  3217.32    0.2594E-04
  3220.26    0.2644E-04
  3223.20    0.2695E-04
  3226.14    0.2747E-04
  3229.08    0.2802E-04
  3232.02    0.2857E-04
  3234.96    0.2915E-04
  3237.90    0.2974E-04
  3240.84    0.3036E-04
  3243.78    0.3099E-04
  3246.72    0.3164E-04
  3249.66    0.3232E-04
  3252.60    0.3302E-04
  3255.54    0.3374E-04
  3258.48    0.3449E-04
  3261.43    0.3526E-04
  3264.37    0.3606E-04
  3267.31    0.3688E-04
  3270.25    0.3774E-04
  3273.19    0.3863E-04
  3276.13    0.3955E-04
  3279.07    0.4050E-04
  3282.01    0.4149E-04
  3284.95    0.4252E-04
  3287.89    0.4359E-04
  3290.83    0.4470E-04
  3293.77    0.4585E-04
  3296.71    0.4705E-04
  3299.65    0.4829E-04
  3302.59    0.4959E-04
  3305.53    0.5094E-04
  3308.47    0.5235E-04
  3311.42    0.5382E-04
  3314.36    0.5536E-04
  3317.30    0.5696E-04
  3320.24    0.5863E-04
  3323.18    0.6038E-04
  3326.12    0.6221E-04
  3329.06    0.6412E-04
  3332.00    0.6612E-04
  3334.94    0.6822E-04
  3337.88    0.7043E-04
  3340.82    0.7274E-04
  3343.76    0.7517E-04
  3346.70    0.7773E-04
  3349.64    0.8042E-04
  3352.58    0.8325E-04
  3355.52    0.8624E-04
  3358.46    0.8939E-04
  3361.40    0.9272E-04
  3364.35    0.9624E-04
  3367.29    0.9996E-04
  3370.23    0.1039E-03
  3373.17    0.1081E-03
  3376.11    0.1125E-03
  3379.05    0.1173E-03
  3381.99    0.1223E-03
  3384.93    0.1277E-03
  3387.87    0.1334E-03
  3390.81    0.1395E-03
  3393.75    0.1461E-03
  3396.69    0.1531E-03
  3399.63    0.1607E-03
  3402.57    0.1688E-03
  3405.51    0.1776E-03
  3408.45    0.1870E-03
  3411.39    0.1973E-03
  3414.34    0.2084E-03
  3417.28    0.2204E-03
  3420.22    0.2336E-03
  3423.16    0.2479E-03
  3426.10    0.2637E-03
  3429.04    0.2809E-03
  3431.98    0.2999E-03
  3434.92    0.3209E-03
  3437.86    0.3442E-03
  3440.80    0.3701E-03
  3443.74    0.3991E-03
  3446.68    0.4315E-03
  3449.62    0.4681E-03
  3452.56    0.5094E-03
  3455.50    0.5565E-03
  3458.44    0.6103E-03
  3461.38    0.6722E-03
  3464.32    0.7440E-03
  3467.27    0.8278E-03
  3470.21    0.9264E-03
  3473.15    0.1043E-02
  3476.09    0.1184E-02
  3479.03    0.1353E-02
  3481.97    0.1561E-02
  3484.91    0.1820E-02
  3487.85    0.2146E-02
  3490.79    0.2564E-02
  3493.73    0.3110E-02
  3496.67    0.3837E-02
  3499.61    0.4826E-02
  3502.55    0.6197E-02
  3505.49    0.8130E-02
  3508.43    0.1085E-01
  3511.37    0.1452E-01
  3514.31    0.1883E-01
  3517.26    0.2229E-01
  3520.20    0.2266E-01
  3523.14    0.1963E-01
  3526.08    0.1532E-01
  3529.02    0.1148E-01
  3531.96    0.8582E-02
  3534.90    0.6518E-02
  3537.84    0.5054E-02
  3540.78    0.4003E-02
  3543.72    0.3233E-02
  3546.66    0.2657E-02
  3549.60    0.2218E-02
  3552.54    0.1877E-02
  3555.48    0.1607E-02
  3558.42    0.1390E-02
  3561.36    0.1213E-02
  3564.30    0.1068E-02
  3567.24    0.9472E-03
  3570.19    0.8454E-03
  3573.13    0.7590E-03
  3576.07    0.6851E-03
  3579.01    0.6214E-03
  3581.95    0.5661E-03
