
 ------------------------------------------------------------
     normal          Raman Scattering Plot
 ------------------------------------------------------------
 Excitation wavelength  514.50 nm
 Convolution lineshape is lorentzian  
 FWHM   20.00  1/cm
 ------------------------------------------------------------
 ------------------------------------------------------------
 # of frequencies :    72
 ------------------------------------------------------------
 #  freq [ 1/cm]  S [Ang**4/amu]
 ------------------------------------------------------------
   1    18.97    86499.4039
   2    21.43   258162.5574
   3    32.43   173822.9230
   4    50.74   180934.6685
   5    51.28     8791.5688
   6    74.55   101369.1370
   7    75.14  1209758.1413
   8   104.41  1062683.0816
   9   104.51  1076114.0234
  10   138.43    20680.9987
  11   139.30    47529.4441
  12   161.39   125833.5020
  13   175.61   143573.9872
  14   176.38   113817.1658
  15   217.07  1260477.0692
  16   217.53   117490.0504
  17   258.60  2201340.3133
  18   261.09  2059441.2553
  19   303.05   182513.7510
  20   304.25    31872.5844
  21   323.56   131004.6520
  22   340.71    19891.4349
  23   342.38  7927928.2182
  24   401.02   256064.2198
  25   401.26   193461.8339
  26   436.99 13952050.4653
  27   437.95    11624.0937
  28   473.07  1444954.9466
  29   473.63   436649.3567
  30   482.76   225075.5991
  31   508.02   276239.6720
  32   508.11   330133.4757
  33   542.69    28212.1944
  34   543.10     9558.5797
  35   576.97   869620.4997
  36   577.24   358322.2561
  37   608.83    89852.2737
  38   610.00    18929.0683
  39   635.20   645011.0052
  40   636.34   601264.1837
  41   640.01    34247.3487
  42   655.77   206742.4019
  43   658.85   575623.6531
  44   674.51  1832328.5865
  45   676.12  4613531.6917
  46   695.71    56711.1515
  47   696.32    94654.1546
  48   725.08  1295979.8721
  49   725.31   687532.2022
  50   766.60    32901.9815
  51   766.65    35598.6760
  52   793.39   382866.8383
  53   942.36    65706.4358
  54  1086.33     6353.4409
  55  1223.36   383146.6544
  56  1351.75    16407.8289
  57  1468.77     9574.4970
  58  1570.28   123415.6430
  59  1822.92 20130841.9844
  60  1929.24    91759.9965
  61  1973.32   100235.3989
  62  2000.29    19226.0352
  63  2017.66       10.4325
  64  2062.34  1802439.1595
  65  2102.76 22738290.6761
  66  2108.52   838277.9702
  67  2145.25   240884.1494
  68  2153.97    31952.6814
  69  2169.31   372622.1946
  70  2173.97  3017326.0250
  71  3428.79  6085599.3732
  72  3429.25   750479.5922
 ------------------------------------------------------------
   -37.50    0.1796E+05
   -33.96    0.2005E+05
   -30.43    0.2256E+05
   -26.89    0.2558E+05
   -23.36    0.2927E+05
   -19.83    0.3385E+05
   -16.29    0.3962E+05
   -12.76    0.4704E+05
    -9.23    0.5678E+05
    -5.69    0.6989E+05
    -2.16    0.8804E+05
     1.38    0.1139E+06
     4.91    0.1520E+06
     8.44    0.2089E+06
    11.98    0.2923E+06
    15.51    0.3997E+06
    19.04    0.4926E+06
    22.58    0.5064E+06
    26.11    0.4439E+06
    29.65    0.3682E+06
    33.18    0.3024E+06
    36.71    0.2420E+06
    40.25    0.1943E+06
    43.78    0.1650E+06
    47.32    0.1505E+06
    50.85    0.1408E+06
    54.38    0.1289E+06
    57.92    0.1191E+06
    61.45    0.1182E+06
    64.98    0.1293E+06
    68.52    0.1530E+06
    72.05    0.1814E+06
    75.59    0.1917E+06
    79.12    0.1712E+06
    82.65    0.1397E+06
    86.19    0.1167E+06
    89.72    0.1066E+06
    93.25    0.1094E+06
    96.79    0.1245E+06
   100.32    0.1477E+06
   103.86    0.1618E+06
   107.39    0.1478E+06
   110.92    0.1158E+06
   114.46    0.8582E+05
   117.99    0.6424E+05
   121.53    0.4971E+05
   125.06    0.3997E+05
   128.59    0.3338E+05
   132.13    0.2891E+05
   135.66    0.2584E+05
   139.19    0.2340E+05
   142.73    0.2112E+05
   146.26    0.1917E+05
   149.80    0.1783E+05
   153.33    0.1720E+05
   156.86    0.1718E+05
   160.40    0.1734E+05
   163.93    0.1717E+05
   167.46    0.1694E+05
   171.00    0.1717E+05
   174.53    0.1744E+05
   178.07    0.1672E+05
   181.60    0.1511E+05
   185.13    0.1362E+05
   188.67    0.1274E+05
   192.20    0.1248E+05
   195.74    0.1283E+05
   199.27    0.1386E+05
   202.80    0.1579E+05
   206.34    0.1899E+05
   209.87    0.2376E+05
   213.40    0.2938E+05
   216.94    0.3257E+05
   220.47    0.3039E+05
   224.01    0.2542E+05
   227.54    0.2123E+05
   231.07    0.1881E+05
   234.61    0.1804E+05
   238.14    0.1874E+05
   241.67    0.2100E+05
   245.21    0.2526E+05
   248.74    0.3229E+05
   252.28    0.4274E+05
   255.81    0.5495E+05
   259.34    0.6197E+05
   262.88    0.5730E+05
   266.41    0.4520E+05
   269.95    0.3356E+05
   273.48    0.2519E+05
   277.01    0.1967E+05
   280.55    0.1610E+05
   284.08    0.1381E+05
   287.61    0.1239E+05
   291.15    0.1163E+05
   294.68    0.1141E+05
   298.22    0.1165E+05
   301.75    0.1209E+05
   305.28    0.1239E+05
   308.82    0.1264E+05
   312.35    0.1329E+05
   315.88    0.1467E+05
   319.42    0.1696E+05
   322.95    0.2037E+05
   326.49    0.2530E+05
   330.02    0.3281E+05
   333.55    0.4425E+05
   337.09    0.5954E+05
   340.62    0.7275E+05
   344.16    0.7257E+05
   347.69    0.5902E+05
   351.22    0.4343E+05
   354.76    0.3162E+05
   358.29    0.2371E+05
   361.82    0.1853E+05
   365.36    0.1510E+05
   368.89    0.1279E+05
   372.43    0.1124E+05
   375.96    0.1022E+05
   379.49     9603.    
   383.03     9333.    
   386.56     9391.    
   390.09     9806.    
   393.63    0.1062E+05
   397.16    0.1178E+05
   400.70    0.1292E+05
   404.23    0.1371E+05
   407.76    0.1455E+05
   411.30    0.1611E+05
   414.83    0.1884E+05
   418.37    0.2324E+05
   421.90    0.3014E+05
   425.43    0.4080E+05
   428.97    0.5657E+05
   432.50    0.7626E+05
   436.03    0.9028E+05
   439.57    0.8565E+05
   443.10    0.6728E+05
   446.64    0.4895E+05
   450.17    0.3579E+05
   453.70    0.2730E+05
   457.24    0.2211E+05
   460.77    0.1926E+05
   464.30    0.1823E+05
   467.84    0.1861E+05
   471.37    0.1928E+05
   474.91    0.1842E+05
   478.44    0.1585E+05
   481.97    0.1305E+05
   485.51    0.1071E+05
   489.04     8934.    
   492.58     7729.    
   496.11     7045.    
   499.64     6814.    
   503.18     6926.    
   506.71     7023.    
   510.24     6585.    
   513.78     5676.    
   517.31     4777.    
   520.85     4096.    
   524.38     3618.    
   527.91     3287.    
   531.45     3062.    
   534.98     2918.    
   538.51     2836.    
   542.05     2787.    
   545.58     2746.    
   549.12     2728.    
   552.65     2772.    
   556.18     2907.    
   559.72     3170.    
   563.25     3619.    
   566.79     4337.    
   570.32     5381.    
   573.85     6530.    
   577.39     7008.    
   580.92     6321.    
   584.45     5144.    
   587.99     4161.    
   591.52     3512.    
   595.06     3130.    
   598.59     2943.    
   602.12     2902.    
   605.66     2966.    
   609.19     3061.    
   612.72     3148.    
   616.26     3299.    
   619.79     3613.    
   623.33     4172.    
   626.86     5054.    
   630.39     6256.    
   633.93     7402.    
   637.46     7762.    
   641.00     7334.    
   644.53     6911.    
   648.06     7004.    
   651.60     7720.    
   655.13     8940.    
   658.66    0.1038E+05
   662.20    0.1209E+05
   665.73    0.1474E+05
   669.27    0.1883E+05
   672.80    0.2324E+05
   676.33    0.2457E+05
   679.87    0.2118E+05
   683.40    0.1605E+05
   686.93    0.1186E+05
   690.47     9042.    
   694.00     7249.    
   697.54     6054.    
   701.07     5225.    
   704.60     4726.    
   708.14     4562.    
   711.67     4760.    
   715.21     5381.    
   718.74     6450.    
   722.27     7631.    
   725.81     7936.    
   729.34     6875.    
   732.87     5326.    
   736.41     4045.    
   739.94     3154.    
   743.48     2553.    
   747.01     2146.    
   750.54     1865.    
   754.08     1673.    
   757.61     1549.    
   761.15     1476.    
   764.68     1431.    
   768.21     1376.    
   771.75     1308.    
   775.28     1263.    
   778.81     1270.    
   782.35     1344.    
   785.88     1497.    
   789.42     1698.    
   792.95     1808.    
   796.48     1679.    
   800.02     1408.    
   803.55     1156.    
   807.08     972.3    
   810.62     844.4    
   814.15     754.1    
   817.69     687.8    
   821.22     637.3    
   824.75     597.4    
   828.29     564.9    
   831.82     537.8    
   835.36     514.6    
   838.89     494.4    
   842.42     476.6    
   845.96     460.7    
   849.49     446.4    
   853.02     433.3    
   856.56     421.4    
   860.09     410.4    
   863.63     400.2    
   867.16     390.7    
   870.69     381.9    
   874.23     373.7    
   877.76     366.0    
   881.29     358.8    
   884.83     352.1    
   888.36     345.8    
   891.90     339.9    
   895.43     334.6    
   898.96     329.7    
   902.50     325.3    
   906.03     321.5    
   909.57     318.5    
   913.10     316.4    
   916.63     315.6    
   920.17     316.7    
   923.70     320.5    
   927.23     328.5    
   930.77     343.1    
   934.30     366.5    
   937.84     396.8    
   941.37     417.6    
   944.90     406.0    
   948.44     370.4    
   951.97     334.7    
   955.50     307.8    
   959.04     288.8    
   962.57     275.2    
   966.11     265.0    
   969.64     257.1    
   973.17     250.6    
   976.71     245.1    
   980.24     240.3    
   983.78     236.0    
   987.31     232.2    
   990.84     228.6    
   994.38     225.3    
   997.91     222.2    
  1001.44     219.2    
  1004.98     216.4    
  1008.51     213.7    
  1012.05     211.2    
  1015.58     208.7    
  1019.11     206.4    
  1022.65     204.1    
  1026.18     201.9    
  1029.71     199.8    
  1033.25     197.7    
  1036.78     195.7    
  1040.32     193.8    
  1043.85     192.0    
  1047.38     190.2    
  1050.92     188.5    
  1054.45     187.0    
  1057.99     185.5    
  1061.52     184.2    
  1065.05     183.0    
  1068.59     182.2    
  1072.12     181.8    
  1075.65     181.9    
  1079.19     182.9    
  1082.72     184.2    
  1086.26     184.3    
  1089.79     181.6    
  1093.32     177.6    
  1096.86     173.9    
  1100.39     170.9    
  1103.92     168.6    
  1107.46     166.8    
  1110.99     165.2    
  1114.53     163.8    
  1118.06     162.6    
  1121.59     161.5    
  1125.13     160.6    
  1128.66     159.7    
  1132.20     158.9    
  1135.73     158.3    
  1139.26     157.7    
  1142.80     157.3    
  1146.33     157.0    
  1149.86     156.9    
  1153.40     156.9    
  1156.93     157.2    
  1160.47     157.7    
  1164.00     158.5    
  1167.53     159.7    
  1171.07     161.4    
  1174.60     163.6    
  1178.13     166.6    
  1181.67     170.6    
  1185.20     176.0    
  1188.74     183.2    
  1192.27     193.1    
  1195.80     206.7    
  1199.34     225.9    
  1202.87     253.7    
  1206.41     295.0    
  1209.94     357.7    
  1213.47     452.3    
  1217.01     584.3    
  1220.54     720.9    
  1224.07     764.2    
  1227.61     668.6    
  1231.14     523.7    
  1234.68     404.6    
  1238.21     322.5    
  1241.74     268.1    
  1245.28     231.3    
  1248.81     205.9    
  1252.34     187.6    
  1255.88     174.1    
  1259.41     163.8    
  1262.95     155.8    
  1266.48     149.4    
  1270.01     144.2    
  1273.55     139.9    
  1277.08     136.3    
  1280.62     133.3    
  1284.15     130.6    
  1287.68     128.3    
  1291.22     126.3    
  1294.75     124.5    
  1298.28     122.9    
  1301.82     121.5    
  1305.35     120.2    
  1308.89     119.1    
  1312.42     118.2    
  1315.95     117.3    
  1319.49     116.7    
  1323.02     116.2    
  1326.55     116.0    
  1330.09     116.1    
  1333.62     116.7    
  1337.16     118.0    
  1340.69     120.4    
  1344.22     124.3    
  1347.76     129.0    
  1351.29     131.7    
  1354.83     129.0    
  1358.36     123.2    
  1361.89     117.7    
  1365.43     113.7    
  1368.96     110.9    
  1372.49     108.9    
  1376.03     107.3    
  1379.56     106.2    
  1383.10     105.2    
  1386.63     104.4    
  1390.16     103.7    
  1393.70     103.1    
  1397.23     102.6    
  1400.76     102.1    
  1404.30     101.7    
  1407.83     101.3    
  1411.37     101.0    
  1414.90     100.7    
  1418.43     100.4    
  1421.97     100.2    
  1425.50     100.0    
  1429.04     99.88    
  1432.57     99.80    
  1436.10     99.77    
  1439.64     99.83    
  1443.17     100.0    
  1446.70     100.3    
  1450.24     100.9    
  1453.77     101.8    
  1457.31     103.3    
  1460.84     105.6    
  1464.37     108.4    
  1467.91     110.3    
  1471.44     109.6    
  1474.97     107.0    
  1478.51     104.4    
  1482.04     102.6    
  1485.58     101.5    
  1489.11     100.8    
  1492.64     100.4    
  1496.18     100.3    
  1499.71     100.4    
  1503.25     100.5    
  1506.78     100.8    
  1510.31     101.2    
  1513.85     101.8    
  1517.38     102.5    
  1520.91     103.3    
  1524.45     104.4    
  1527.98     105.7    
  1531.52     107.3    
  1535.05     109.3    
  1538.58     112.0    
  1542.12     115.5    
  1545.65     120.3    
  1549.18     126.9    
  1552.72     136.4    
  1556.25     150.6    
  1559.79     171.7    
  1563.32     201.7    
  1566.85     235.2    
  1570.39     251.5    
  1573.92     234.7    
  1577.46     202.2    
  1580.99     174.0    
  1584.52     154.6    
  1588.06     142.1    
  1591.59     134.0    
  1595.12     128.9    
  1598.66     125.5    
  1602.19     123.5    
  1605.73     122.3    
  1609.26     121.7    
  1612.79     121.6    
  1616.33     121.9    
  1619.86     122.4    
  1623.39     123.3    
  1626.93     124.3    
  1630.46     125.5    
  1634.00     127.0    
  1637.53     128.6    
  1641.06     130.4    
  1644.60     132.4    
  1648.13     134.6    
  1651.67     137.0    
  1655.20     139.5    
  1658.73     142.3    
  1662.27     145.3    
  1665.80     148.6    
  1669.33     152.1    
  1672.87     155.9    
  1676.40     159.9    
  1679.94     164.4    
  1683.47     169.2    
  1687.00     174.4    
  1690.54     180.0    
  1694.07     186.1    
  1697.60     192.8    
  1701.14     200.0    
  1704.67     207.9    
  1708.21     216.6    
  1711.74     226.2    
  1715.27     236.7    
  1718.81     248.2    
  1722.34     261.0    
  1725.88     275.3    
  1729.41     291.1    
  1732.94     308.9    
  1736.48     328.8    
  1740.01     351.3    
  1743.54     376.7    
  1747.08     405.8    
  1750.61     439.1    
  1754.15     477.5    
  1757.68     522.1    
  1761.21     574.4    
  1764.75     636.1    
  1768.28     709.6    
  1771.81     798.0    
  1775.35     905.8    
  1778.88     1039.    
  1782.42     1205.    
  1785.95     1418.    
  1789.48     1693.    
  1793.02     2059.    
  1796.55     2556.    
  1800.09     3252.    
  1803.62     4255.    
  1807.15     5742.    
  1810.69     7990.    
  1814.22    0.1132E+05
  1817.75    0.1568E+05
  1821.29    0.1932E+05
  1824.82    0.1914E+05
  1828.36    0.1532E+05
  1831.89    0.1102E+05
  1835.42     7781.    
  1838.96     5607.    
  1842.49     4167.    
  1846.02     3196.    
  1849.56     2520.    
  1853.09     2036.    
  1856.63     1681.    
  1860.16     1412.    
  1863.69     1206.    
  1867.23     1044.    
  1870.76     914.5    
  1874.30     810.2    
  1877.83     724.8    
  1881.36     654.4    
  1884.90     595.7    
  1888.43     546.5    
  1891.96     505.0    
  1895.50     470.0    
  1899.03     440.5    
  1902.57     415.8    
  1906.10     395.6    
  1909.63     379.7    
  1913.17     368.5    
  1916.70     362.7    
  1920.23     363.4    
  1923.77     370.4    
  1927.30     377.1    
  1930.84     370.2    
  1934.37     348.5    
  1937.90     325.2    
  1941.44     307.5    
  1944.97     295.8    
  1948.51     289.1    
  1952.04     286.3    
  1955.57     287.4    
  1959.11     292.9    
  1962.64     303.8    
  1966.17     321.2    
  1969.71     342.3    
  1973.24     355.1    
  1976.78     349.7    
  1980.31     335.6    
  1983.84     325.1    
  1987.38     321.7    
  1990.91     324.6    
  1994.44     332.6    
  1997.98     343.9    
  2001.51     355.4    
  2005.05     366.5    
  2008.58     379.8    
  2012.11     397.2    
  2015.65     419.6    
  2019.18     447.2    
  2022.72     481.1    
  2026.25     522.3    
  2029.78     573.0    
  2033.32     636.1    
  2036.85     715.9    
  2040.38     819.4    
  2043.92     957.3    
  2047.45     1147.    
  2050.99     1413.    
  2054.52     1782.    
  2058.05     2234.    
  2061.59     2605.    
  2065.12     2698.    
  2068.66     2629.    
  2072.19     2647.    
  2075.72     2867.    
  2079.26     3332.    
  2082.79     4110.    
  2086.32     5335.    
  2089.86     7234.    
  2093.39    0.1011E+05
  2096.93    0.1404E+05
  2100.46    0.1785E+05
  2103.99    0.1863E+05
  2107.53    0.1564E+05
  2111.06    0.1157E+05
  2114.59     8245.    
  2118.13     5951.    
  2121.66     4431.    
  2125.20     3420.    
  2128.73     2737.    
  2132.26     2270.    
  2135.80     1956.    
  2139.33     1753.    
  2142.87     1625.    
  2146.40     1531.    
  2149.93     1458.    
  2153.47     1435.    
  2157.00     1493.    
  2160.53     1665.    
  2164.07     1986.    
  2167.60     2446.    
  2171.14     2882.    
  2174.67     2941.    
  2178.20     2504.    
  2181.74     1910.    
  2185.27     1428.    
  2188.80     1092.    
  2192.34     864.2    
  2195.87     706.6    
  2199.41     593.9    
  2202.94     510.6    
  2206.47     447.1    
  2210.01     397.3    
  2213.54     357.3    
  2217.08     324.6    
  2220.61     297.4    
  2224.14     274.4    
  2227.68     254.6    
  2231.21     237.6    
  2234.74     222.6    
  2238.28     209.5    
  2241.81     197.8    
  2245.35     187.4    
  2248.88     178.0    
  2252.41     169.5    
  2255.95     161.8    
  2259.48     154.7    
  2263.01     148.3    
  2266.55     142.3    
  2270.08     136.9    
  2273.62     131.8    
  2277.15     127.1    
  2280.68     122.8    
  2284.22     118.7    
  2287.75     114.9    
  2291.29     111.4    
  2294.82     108.0    
  2298.35     104.9    
  2301.89     101.9    
  2305.42     99.15    
  2308.95     96.53    
  2312.49     94.04    
  2316.02     91.69    
  2319.56     89.46    
  2323.09     87.34    
  2326.62     85.32    
  2330.16     83.41    
  2333.69     81.58    
  2337.22     79.84    
  2340.76     78.17    
  2344.29     76.58    
  2347.83     75.06    
  2351.36     73.61    
  2354.89     72.21    
  2358.43     70.87    
  2361.96     69.59    
  2365.50     68.36    
  2369.03     67.17    
  2372.56     66.03    
  2376.10     64.93    
  2379.63     63.87    
  2383.16     62.85    
  2386.70     61.87    
  2390.23     60.92    
  2393.77     60.00    
  2397.30     59.12    
  2400.83     58.26    
  2404.37     57.43    
  2407.90     56.63    
  2411.43     55.86    
  2414.97     55.10    
  2418.50     54.37    
  2422.04     53.67    
  2425.57     52.98    
  2429.10     52.32    
  2432.64     51.67    
  2436.17     51.04    
  2439.71     50.43    
  2443.24     49.84    
  2446.77     49.26    
  2450.31     48.70    
  2453.84     48.15    
  2457.37     47.62    
  2460.91     47.10    
  2464.44     46.60    
  2467.98     46.11    
  2471.51     45.63    
  2475.04     45.16    
  2478.58     44.70    
  2482.11     44.25    
  2485.64     43.82    
  2489.18     43.39    
  2492.71     42.98    
  2496.25     42.57    
  2499.78     42.18    
  2503.31     41.79    
  2506.85     41.41    
  2510.38     41.04    
  2513.92     40.67    
  2517.45     40.32    
  2520.98     39.97    
  2524.52     39.63    
  2528.05     39.30    
  2531.58     38.97    
  2535.12     38.65    
  2538.65     38.33    
  2542.19     38.03    
  2545.72     37.72    
  2549.25     37.43    
  2552.79     37.14    
  2556.32     36.85    
  2559.85     36.57    
  2563.39     36.30    
  2566.92     36.03    
  2570.46     35.76    
  2573.99     35.50    
  2577.52     35.25    
  2581.06     35.00    
  2584.59     34.75    
  2588.13     34.51    
  2591.66     34.27    
  2595.19     34.04    
  2598.73     33.81    
  2602.26     33.58    
  2605.79     33.36    
  2609.33     33.14    
  2612.86     32.92    
  2616.40     32.71    
  2619.93     32.50    
  2623.46     32.30    
  2627.00     32.09    
  2630.53     31.89    
  2634.06     31.70    
  2637.60     31.50    
  2641.13     31.31    
  2644.67     31.13    
  2648.20     30.94    
  2651.73     30.76    
  2655.27     30.58    
  2658.80     30.40    
  2662.34     30.23    
  2665.87     30.06    
  2669.40     29.89    
  2672.94     29.72    
  2676.47     29.56    
  2680.00     29.40    
  2683.54     29.24    
  2687.07     29.08    
  2690.61     28.92    
  2694.14     28.77    
  2697.67     28.62    
  2701.21     28.47    
  2704.74     28.32    
  2708.27     28.17    
  2711.81     28.03    
  2715.34     27.89    
  2718.88     27.75    
  2722.41     27.61    
  2725.94     27.47    
  2729.48     27.34    
  2733.01     27.21    
  2736.55     27.07    
  2740.08     26.94    
  2743.61     26.82    
  2747.15     26.69    
  2750.68     26.56    
  2754.21     26.44    
  2757.75     26.32    
  2761.28     26.20    
  2764.82     26.08    
  2768.35     25.96    
  2771.88     25.85    
  2775.42     25.73    
  2778.95     25.62    
  2782.48     25.51    
  2786.02     25.39    
  2789.55     25.29    
  2793.09     25.18    
  2796.62     25.07    
  2800.15     24.96    
  2803.69     24.86    
  2807.22     24.76    
  2810.76     24.66    
  2814.29     24.55    
  2817.82     24.45    
  2821.36     24.36    
  2824.89     24.26    
  2828.42     24.16    
  2831.96     24.07    
  2835.49     23.97    
  2839.03     23.88    
  2842.56     23.79    
  2846.09     23.70    
  2849.63     23.61    
  2853.16     23.52    
  2856.69     23.43    
  2860.23     23.35    
  2863.76     23.26    
  2867.30     23.18    
  2870.83     23.09    
  2874.36     23.01    
  2877.90     22.93    
  2881.43     22.85    
  2884.97     22.77    
  2888.50     22.69    
  2892.03     22.61    
  2895.57     22.54    
  2899.10     22.46    
  2902.63     22.39    
  2906.17     22.31    
  2909.70     22.24    
  2913.24     22.17    
  2916.77     22.10    
  2920.30     22.03    
  2923.84     21.96    
  2927.37     21.89    
  2930.90     21.83    
  2934.44     21.76    
  2937.97     21.69    
  2941.51     21.63    
  2945.04     21.57    
  2948.57     21.50    
  2952.11     21.44    
  2955.64     21.38    
  2959.18     21.32    
  2962.71     21.26    
  2966.24     21.21    
  2969.78     21.15    
  2973.31     21.09    
  2976.84     21.04    
  2980.38     20.99    
  2983.91     20.93    
  2987.45     20.88    
  2990.98     20.83    
  2994.51     20.78    
  2998.05     20.73    
  3001.58     20.68    
  3005.11     20.64    
  3008.65     20.59    
  3012.18     20.55    
  3015.72     20.50    
  3019.25     20.46    
  3022.78     20.42    
  3026.32     20.38    
  3029.85     20.34    
  3033.39     20.30    
  3036.92     20.27    
  3040.45     20.23    
  3043.99     20.20    
  3047.52     20.16    
  3051.05     20.13    
  3054.59     20.10    
  3058.12     20.07    
  3061.66     20.05    
  3065.19     20.02    
  3068.72     19.99    
  3072.26     19.97    
  3075.79     19.95    
  3079.32     19.93    
  3082.86     19.91    
  3086.39     19.89    
  3089.93     19.88    
  3093.46     19.86    
  3096.99     19.85    
  3100.53     19.84    
  3104.06     19.83    
  3107.60     19.83    
  3111.13     19.82    
  3114.66     19.82    
  3118.20     19.82    
  3121.73     19.83    
  3125.26     19.83    
  3128.80     19.84    
  3132.33     19.85    
  3135.87     19.86    
  3139.40     19.88    
  3142.93     19.90    
  3146.47     19.92    
  3150.00     19.94    
  3153.53     19.97    
  3157.07     20.00    
  3160.60     20.04    
  3164.14     20.08    
  3167.67     20.12    
  3171.20     20.17    
  3174.74     20.22    
  3178.27     20.27    
  3181.81     20.33    
  3185.34     20.40    
  3188.87     20.47    
  3192.41     20.55    
  3195.94     20.63    
  3199.47     20.72    
  3203.01     20.82    
  3206.54     20.92    
  3210.08     21.04    
  3213.61     21.16    
  3217.14     21.28    
  3220.68     21.42    
  3224.21     21.57    
  3227.74     21.73    
  3231.28     21.90    
  3234.81     22.08    
  3238.35     22.27    
  3241.88     22.48    
  3245.41     22.71    
  3248.95     22.95    
  3252.48     23.20    
  3256.02     23.48    
  3259.55     23.78    
  3263.08     24.10    
  3266.62     24.44    
  3270.15     24.81    
  3273.68     25.21    
  3277.22     25.64    
  3280.75     26.10    
  3284.29     26.60    
  3287.82     27.14    
  3291.35     27.73    
  3294.89     28.37    
  3298.42     29.06    
  3301.95     29.82    
  3305.49     30.65    
  3309.02     31.55    
  3312.56     32.54    
  3316.09     33.63    
  3319.62     34.82    
  3323.16     36.15    
  3326.69     37.61    
  3330.23     39.24    
  3333.76     41.05    
  3337.29     43.08    
  3340.83     45.37    
  3344.36     47.94    
  3347.89     50.85    
  3351.43     54.17    
  3354.96     57.98    
  3358.50     62.36    
  3362.03     67.44    
  3365.56     73.37    
  3369.10     80.36    
  3372.63     88.66    
  3376.17     98.61    
  3379.70     110.7    
  3383.23     125.5    
  3386.77     144.0    
  3390.30     167.3    
  3393.83     197.4    
  3397.37     236.9    
  3400.90     290.1    
  3404.44     363.5    
  3407.97     468.0    
  3411.50     621.2    
  3415.04     851.3    
  3418.57     1198.    
  3422.10     1688.    
  3425.64     2220.    
  3429.17     2443.    
  3432.71     2129.    
  3436.24     1585.    
  3439.77     1121.    
  3443.31     799.7    
  3446.84     586.9    
  3450.38     444.7    
  3453.91     347.1    
  3457.44     278.1    
  3460.98     227.9    
  3464.51     190.3    
  3468.04     161.7    
  3471.58     139.3    
  3475.11     121.5    
  3478.65     107.2    
  3482.18     95.52    
  3485.71     85.84    
  3489.25     77.74    
  3492.78     70.90    
