
 ------------------------------------------------------------
     normal          Raman Scattering Plot
 ------------------------------------------------------------
 Excitation wavelength  514.50 nm
 Convolution lineshape is lorentzian  
 FWHM   20.00  1/cm
 ------------------------------------------------------------
 ------------------------------------------------------------
 # of frequencies :    15
 ------------------------------------------------------------
 #  freq [ 1/cm]  S [Ang**4/amu]
 ------------------------------------------------------------
   1   384.40        2.9326
   2   384.43        2.9253
   3   866.90       22.8373
   4   893.69        0.0046
   5   893.79        0.0032
   6  1021.00        0.7826
   7  1021.12        0.7707
   8  1076.42       55.0746
   9  1439.99        1.3817
  10  1471.21       43.7117
  11  2011.98        0.1664
  12  3067.43       68.4586
  13  3069.96      374.7141
  14  3125.46      172.7645
  15  3125.86      173.0646
 ------------------------------------------------------------
   327.27    0.1366E-02
   330.13    0.1505E-02
   333.00    0.1666E-02
   335.86    0.1854E-02
   338.73    0.2077E-02
   341.59    0.2343E-02
   344.46    0.2664E-02
   347.32    0.3055E-02
   350.18    0.3538E-02
   353.05    0.4143E-02
   355.91    0.4912E-02
   358.78    0.5907E-02
   361.64    0.7219E-02
   364.51    0.8984E-02
   367.37    0.1140E-01
   370.23    0.1478E-01
   373.10    0.1949E-01
   375.96    0.2591E-01
   378.83    0.3383E-01
   381.69    0.4132E-01
   384.56    0.4438E-01
   387.42    0.4072E-01
   390.28    0.3303E-01
   393.15    0.2521E-01
   396.01    0.1897E-01
   398.88    0.1440E-01
   401.74    0.1114E-01
   404.61    0.8795E-02
   407.47    0.7083E-02
   410.33    0.5807E-02
   413.20    0.4839E-02
   416.06    0.4089E-02
   418.93    0.3499E-02
   421.79    0.3028E-02
   424.66    0.2645E-02
   427.52    0.2332E-02
   430.38    0.2071E-02
   433.25    0.1853E-02
   436.11    0.1668E-02
   438.98    0.1511E-02
   441.84    0.1376E-02
   444.71    0.1259E-02
   447.57    0.1157E-02
   450.44    0.1068E-02
   453.30    0.9891E-03
   456.16    0.9197E-03
   459.03    0.8580E-03
   461.89    0.8030E-03
   464.76    0.7537E-03
   467.62    0.7095E-03
   470.49    0.6696E-03
   473.35    0.6335E-03
   476.21    0.6008E-03
   479.08    0.5711E-03
   481.94    0.5440E-03
   484.81    0.5193E-03
   487.67    0.4967E-03
   490.54    0.4759E-03
   493.40    0.4568E-03
   496.26    0.4393E-03
   499.13    0.4232E-03
   501.99    0.4083E-03
   504.86    0.3945E-03
   507.72    0.3818E-03
   510.59    0.3700E-03
   513.45    0.3591E-03
   516.31    0.3490E-03
   519.18    0.3396E-03
   522.04    0.3309E-03
   524.91    0.3228E-03
   527.77    0.3153E-03
   530.64    0.3084E-03
   533.50    0.3019E-03
   536.36    0.2959E-03
   539.23    0.2903E-03
   542.09    0.2852E-03
   544.96    0.2804E-03
   547.82    0.2760E-03
   550.69    0.2719E-03
   553.55    0.2682E-03
   556.42    0.2647E-03
   559.28    0.2615E-03
   562.14    0.2586E-03
   565.01    0.2560E-03
   567.87    0.2536E-03
   570.74    0.2515E-03
   573.60    0.2495E-03
   576.47    0.2478E-03
   579.33    0.2463E-03
   582.19    0.2450E-03
   585.06    0.2439E-03
   587.92    0.2430E-03
   590.79    0.2423E-03
   593.65    0.2417E-03
   596.52    0.2413E-03
   599.38    0.2411E-03
   602.24    0.2411E-03
   605.11    0.2412E-03
   607.97    0.2415E-03
   610.84    0.2420E-03
   613.70    0.2426E-03
   616.57    0.2434E-03
   619.43    0.2443E-03
   622.29    0.2454E-03
   625.16    0.2467E-03
   628.02    0.2482E-03
   630.89    0.2498E-03
   633.75    0.2515E-03
   636.62    0.2535E-03
   639.48    0.2556E-03
   642.34    0.2578E-03
   645.21    0.2603E-03
   648.07    0.2630E-03
   650.94    0.2658E-03
   653.80    0.2688E-03
   656.67    0.2721E-03
   659.53    0.2755E-03
   662.40    0.2791E-03
   665.26    0.2830E-03
   668.12    0.2871E-03
   670.99    0.2915E-03
   673.85    0.2960E-03
   676.72    0.3009E-03
   679.58    0.3060E-03
   682.45    0.3114E-03
   685.31    0.3171E-03
   688.17    0.3232E-03
   691.04    0.3295E-03
   693.90    0.3363E-03
   696.77    0.3433E-03
   699.63    0.3508E-03
   702.50    0.3587E-03
   705.36    0.3671E-03
   708.22    0.3759E-03
   711.09    0.3852E-03
   713.95    0.3951E-03
   716.82    0.4055E-03
   719.68    0.4166E-03
   722.55    0.4283E-03
   725.41    0.4407E-03
   728.27    0.4539E-03
   731.14    0.4680E-03
   734.00    0.4829E-03
   736.87    0.4988E-03
   739.73    0.5158E-03
   742.60    0.5339E-03
   745.46    0.5533E-03
   748.32    0.5740E-03
   751.19    0.5963E-03
   754.05    0.6202E-03
   756.92    0.6459E-03
   759.78    0.6736E-03
   762.65    0.7035E-03
   765.51    0.7359E-03
   768.37    0.7711E-03
   771.24    0.8093E-03
   774.10    0.8509E-03
   776.97    0.8964E-03
   779.83    0.9463E-03
   782.70    0.1001E-02
   785.56    0.1062E-02
   788.43    0.1128E-02
   791.29    0.1203E-02
   794.15    0.1285E-02
   797.02    0.1378E-02
   799.88    0.1482E-02
   802.75    0.1600E-02
   805.61    0.1734E-02
   808.48    0.1887E-02
   811.34    0.2062E-02
   814.20    0.2266E-02
   817.07    0.2503E-02
   819.93    0.2782E-02
   822.80    0.3113E-02
   825.66    0.3510E-02
   828.53    0.3990E-02
   831.39    0.4579E-02
   834.25    0.5311E-02
   837.12    0.6235E-02
   839.98    0.7421E-02
   842.85    0.8969E-02
   845.71    0.1103E-01
   848.58    0.1384E-01
   851.44    0.1772E-01
   854.30    0.2314E-01
   857.17    0.3066E-01
   860.03    0.4048E-01
   862.90    0.5127E-01
   865.76    0.5869E-01
   868.63    0.5774E-01
   871.49    0.4916E-01
   874.35    0.3834E-01
   877.22    0.2898E-01
   880.08    0.2194E-01
   882.95    0.1690E-01
   885.81    0.1329E-01
   888.68    0.1068E-01
   891.54    0.8760E-02
   894.41    0.7313E-02
   897.27    0.6203E-02
   900.13    0.5337E-02
   903.00    0.4651E-02
   905.86    0.4102E-02
   908.73    0.3657E-02
   911.59    0.3292E-02
   914.46    0.2991E-02
   917.32    0.2741E-02
   920.18    0.2532E-02
   923.05    0.2356E-02
   925.91    0.2208E-02
   928.78    0.2083E-02
   931.64    0.1978E-02
   934.51    0.1890E-02
   937.37    0.1816E-02
   940.23    0.1755E-02
   943.10    0.1706E-02
   945.96    0.1667E-02
   948.83    0.1637E-02
   951.69    0.1616E-02
   954.56    0.1603E-02
   957.42    0.1598E-02
   960.28    0.1601E-02
   963.15    0.1611E-02
   966.01    0.1629E-02
   968.88    0.1655E-02
   971.74    0.1690E-02
   974.61    0.1734E-02
   977.47    0.1787E-02
   980.33    0.1852E-02
   983.20    0.1929E-02
   986.06    0.2021E-02
   988.93    0.2131E-02
   991.79    0.2262E-02
   994.66    0.2419E-02
   997.52    0.2610E-02
  1000.39    0.2846E-02
  1003.25    0.3141E-02
  1006.11    0.3519E-02
  1008.98    0.4009E-02
  1011.84    0.4644E-02
  1014.71    0.5432E-02
  1017.57    0.6278E-02
  1020.44    0.6921E-02
  1023.30    0.7128E-02
  1026.16    0.7019E-02
  1029.03    0.6910E-02
  1031.89    0.6991E-02
  1034.76    0.7318E-02
  1037.62    0.7898E-02
  1040.49    0.8744E-02
  1043.35    0.9894E-02
  1046.21    0.1142E-01
  1049.08    0.1342E-01
  1051.94    0.1608E-01
  1054.81    0.1965E-01
  1057.67    0.2451E-01
  1060.54    0.3126E-01
  1063.40    0.4071E-01
  1066.26    0.5386E-01
  1069.13    0.7130E-01
  1071.99    0.9119E-01
  1074.86    0.1064    
  1077.72    0.1071    
  1080.59    0.9287E-01
  1083.45    0.7298E-01
  1086.31    0.5516E-01
  1089.18    0.4159E-01
  1092.04    0.3182E-01
  1094.91    0.2483E-01
  1097.77    0.1977E-01
  1100.64    0.1605E-01
  1103.50    0.1325E-01
  1106.37    0.1111E-01
  1109.23    0.9441E-02
  1112.09    0.8117E-02
  1114.96    0.7052E-02
  1117.82    0.6183E-02
  1120.69    0.5466E-02
  1123.55    0.4868E-02
  1126.42    0.4364E-02
  1129.28    0.3936E-02
  1132.14    0.3569E-02
  1135.01    0.3253E-02
  1137.87    0.2978E-02
  1140.74    0.2738E-02
  1143.60    0.2527E-02
  1146.47    0.2340E-02
  1149.33    0.2175E-02
  1152.19    0.2027E-02
  1155.06    0.1895E-02
  1157.92    0.1776E-02
  1160.79    0.1669E-02
  1163.65    0.1572E-02
  1166.52    0.1484E-02
  1169.38    0.1405E-02
  1172.24    0.1332E-02
  1175.11    0.1265E-02
  1177.97    0.1204E-02
  1180.84    0.1148E-02
  1183.70    0.1096E-02
  1186.57    0.1048E-02
  1189.43    0.1004E-02
  1192.29    0.9634E-03
  1195.16    0.9257E-03
  1198.02    0.8906E-03
  1200.89    0.8581E-03
  1203.75    0.8278E-03
  1206.62    0.7996E-03
  1209.48    0.7734E-03
  1212.35    0.7489E-03
  1215.21    0.7261E-03
  1218.07    0.7047E-03
  1220.94    0.6848E-03
  1223.80    0.6662E-03
  1226.67    0.6489E-03
  1229.53    0.6326E-03
  1232.40    0.6175E-03
  1235.26    0.6033E-03
  1238.12    0.5901E-03
  1240.99    0.5778E-03
  1243.85    0.5664E-03
  1246.72    0.5557E-03
  1249.58    0.5458E-03
  1252.45    0.5367E-03
  1255.31    0.5283E-03
  1258.17    0.5205E-03
  1261.04    0.5134E-03
  1263.90    0.5069E-03
  1266.77    0.5010E-03
  1269.63    0.4957E-03
  1272.50    0.4910E-03
  1275.36    0.4868E-03
  1278.22    0.4832E-03
  1281.09    0.4802E-03
  1283.95    0.4777E-03
  1286.82    0.4757E-03
  1289.68    0.4743E-03
  1292.55    0.4734E-03
  1295.41    0.4731E-03
  1298.27    0.4733E-03
  1301.14    0.4741E-03
  1304.00    0.4755E-03
  1306.87    0.4775E-03
  1309.73    0.4801E-03
  1312.60    0.4833E-03
  1315.46    0.4872E-03
  1318.33    0.4918E-03
  1321.19    0.4970E-03
  1324.05    0.5031E-03
  1326.92    0.5099E-03
  1329.78    0.5176E-03
  1332.65    0.5262E-03
  1335.51    0.5357E-03
  1338.38    0.5463E-03
  1341.24    0.5579E-03
  1344.10    0.5707E-03
  1346.97    0.5849E-03
  1349.83    0.6004E-03
  1352.70    0.6174E-03
  1355.56    0.6361E-03
  1358.43    0.6565E-03
  1361.29    0.6790E-03
  1364.15    0.7037E-03
  1367.02    0.7309E-03
  1369.88    0.7607E-03
  1372.75    0.7936E-03
  1375.61    0.8300E-03
  1378.48    0.8701E-03
  1381.34    0.9146E-03
  1384.20    0.9641E-03
  1387.07    0.1019E-02
  1389.93    0.1081E-02
  1392.80    0.1150E-02
  1395.66    0.1228E-02
  1398.53    0.1316E-02
  1401.39    0.1417E-02
  1404.25    0.1532E-02
  1407.12    0.1665E-02
  1409.98    0.1819E-02
  1412.85    0.2000E-02
  1415.71    0.2214E-02
  1418.58    0.2472E-02
  1421.44    0.2785E-02
  1424.31    0.3171E-02
  1427.17    0.3656E-02
  1430.03    0.4271E-02
  1432.90    0.5040E-02
  1435.76    0.5953E-02
  1438.63    0.6913E-02
  1441.49    0.7804E-02
  1444.36    0.8700E-02
  1447.22    0.9867E-02
  1450.08    0.1158E-01
  1452.95    0.1409E-01
  1455.81    0.1773E-01
  1458.68    0.2292E-01
  1461.54    0.3020E-01
  1464.41    0.3973E-01
  1467.27    0.5016E-01
  1470.13    0.5720E-01
  1473.00    0.5604E-01
  1475.86    0.4756E-01
  1478.73    0.3700E-01
  1481.59    0.2791E-01
  1484.46    0.2109E-01
  1487.32    0.1619E-01
  1490.18    0.1268E-01
  1493.05    0.1014E-01
  1495.91    0.8258E-02
  1498.78    0.6840E-02
  1501.64    0.5751E-02
  1504.51    0.4899E-02
  1507.37    0.4221E-02
  1510.23    0.3675E-02
  1513.10    0.3228E-02
  1515.96    0.2858E-02
  1518.83    0.2549E-02
  1521.69    0.2288E-02
  1524.56    0.2066E-02
  1527.42    0.1876E-02
  1530.28    0.1711E-02
  1533.15    0.1568E-02
  1536.01    0.1442E-02
  1538.88    0.1332E-02
  1541.74    0.1234E-02
  1544.61    0.1147E-02
  1547.47    0.1070E-02
  1550.34    0.1000E-02
  1553.20    0.9374E-03
  1556.06    0.8808E-03
  1558.93    0.8295E-03
  1561.79    0.7828E-03
  1564.66    0.7403E-03
  1567.52    0.7014E-03
  1570.39    0.6657E-03
  1573.25    0.6329E-03
  1576.11    0.6027E-03
  1578.98    0.5747E-03
  1581.84    0.5489E-03
  1584.71    0.5249E-03
  1587.57    0.5026E-03
  1590.44    0.4819E-03
  1593.30    0.4626E-03
  1596.16    0.4445E-03
  1599.03    0.4276E-03
  1601.89    0.4118E-03
  1604.76    0.3969E-03
  1607.62    0.3830E-03
  1610.49    0.3698E-03
  1613.35    0.3574E-03
  1616.21    0.3458E-03
  1619.08    0.3347E-03
  1621.94    0.3243E-03
  1624.81    0.3144E-03
  1627.67    0.3051E-03
  1630.54    0.2962E-03
  1633.40    0.2878E-03
  1636.26    0.2798E-03
  1639.13    0.2721E-03
  1641.99    0.2649E-03
  1644.86    0.2580E-03
  1647.72    0.2514E-03
  1650.59    0.2451E-03
  1653.45    0.2391E-03
  1656.32    0.2334E-03
  1659.18    0.2279E-03
  1662.04    0.2226E-03
  1664.91    0.2176E-03
  1667.77    0.2127E-03
  1670.64    0.2081E-03
  1673.50    0.2037E-03
  1676.37    0.1994E-03
  1679.23    0.1953E-03
  1682.09    0.1914E-03
  1684.96    0.1876E-03
  1687.82    0.1839E-03
  1690.69    0.1804E-03
  1693.55    0.1770E-03
  1696.42    0.1738E-03
  1699.28    0.1706E-03
  1702.14    0.1676E-03
  1705.01    0.1646E-03
  1707.87    0.1618E-03
  1710.74    0.1591E-03
  1713.60    0.1564E-03
  1716.47    0.1539E-03
  1719.33    0.1514E-03
  1722.19    0.1490E-03
  1725.06    0.1467E-03
  1727.92    0.1445E-03
  1730.79    0.1423E-03
  1733.65    0.1402E-03
  1736.52    0.1382E-03
  1739.38    0.1362E-03
  1742.24    0.1343E-03
  1745.11    0.1324E-03
  1747.97    0.1306E-03
  1750.84    0.1289E-03
  1753.70    0.1272E-03
  1756.57    0.1255E-03
  1759.43    0.1239E-03
  1762.30    0.1224E-03
  1765.16    0.1209E-03
  1768.02    0.1194E-03
  1770.89    0.1180E-03
  1773.75    0.1166E-03
  1776.62    0.1152E-03
  1779.48    0.1139E-03
  1782.35    0.1126E-03
  1785.21    0.1114E-03
  1788.07    0.1102E-03
  1790.94    0.1090E-03
  1793.80    0.1079E-03
  1796.67    0.1067E-03
  1799.53    0.1057E-03
  1802.40    0.1046E-03
  1805.26    0.1036E-03
  1808.12    0.1026E-03
  1810.99    0.1016E-03
  1813.85    0.1006E-03
  1816.72    0.9969E-04
  1819.58    0.9879E-04
  1822.45    0.9790E-04
  1825.31    0.9704E-04
  1828.17    0.9620E-04
  1831.04    0.9538E-04
  1833.90    0.9458E-04
  1836.77    0.9380E-04
  1839.63    0.9304E-04
  1842.50    0.9230E-04
  1845.36    0.9158E-04
  1848.22    0.9088E-04
  1851.09    0.9019E-04
  1853.95    0.8952E-04
  1856.82    0.8887E-04
  1859.68    0.8824E-04
  1862.55    0.8762E-04
  1865.41    0.8702E-04
  1868.28    0.8644E-04
  1871.14    0.8587E-04
  1874.00    0.8531E-04
  1876.87    0.8477E-04
  1879.73    0.8425E-04
  1882.60    0.8374E-04
  1885.46    0.8325E-04
  1888.33    0.8277E-04
  1891.19    0.8231E-04
  1894.05    0.8186E-04
  1896.92    0.8143E-04
  1899.78    0.8101E-04
  1902.65    0.8060E-04
  1905.51    0.8022E-04
  1908.38    0.7984E-04
  1911.24    0.7949E-04
  1914.10    0.7915E-04
  1916.97    0.7882E-04
  1919.83    0.7852E-04
  1922.70    0.7823E-04
  1925.56    0.7797E-04
  1928.43    0.7772E-04
  1931.29    0.7750E-04
  1934.15    0.7730E-04
  1937.02    0.7713E-04
  1939.88    0.7699E-04
  1942.75    0.7688E-04
  1945.61    0.7680E-04
  1948.48    0.7677E-04
  1951.34    0.7679E-04
  1954.20    0.7686E-04
  1957.07    0.7699E-04
  1959.93    0.7720E-04
  1962.80    0.7750E-04
  1965.66    0.7792E-04
  1968.53    0.7847E-04
  1971.39    0.7920E-04
  1974.26    0.8014E-04
  1977.12    0.8137E-04
  1979.98    0.8296E-04
  1982.85    0.8506E-04
  1985.71    0.8784E-04
  1988.58    0.9156E-04
  1991.44    0.9662E-04
  1994.31    0.1036E-03
  1997.17    0.1134E-03
  2000.03    0.1273E-03
  2002.90    0.1463E-03
  2005.76    0.1707E-03
  2008.63    0.1957E-03
  2011.49    0.2095E-03
  2014.36    0.2021E-03
  2017.22    0.1790E-03
  2020.08    0.1532E-03
  2022.95    0.1318E-03
  2025.81    0.1160E-03
  2028.68    0.1046E-03
  2031.54    0.9646E-04
  2034.41    0.9048E-04
  2037.27    0.8602E-04
  2040.13    0.8261E-04
  2043.00    0.7997E-04
  2045.86    0.7787E-04
  2048.73    0.7619E-04
  2051.59    0.7481E-04
  2054.46    0.7367E-04
  2057.32    0.7271E-04
  2060.18    0.7190E-04
  2063.05    0.7121E-04
  2065.91    0.7061E-04
  2068.78    0.7009E-04
  2071.64    0.6963E-04
  2074.51    0.6924E-04
  2077.37    0.6888E-04
  2080.24    0.6857E-04
  2083.10    0.6829E-04
  2085.96    0.6804E-04
  2088.83    0.6782E-04
  2091.69    0.6762E-04
  2094.56    0.6744E-04
  2097.42    0.6728E-04
  2100.29    0.6714E-04
  2103.15    0.6701E-04
  2106.01    0.6690E-04
  2108.88    0.6680E-04
  2111.74    0.6671E-04
  2114.61    0.6663E-04
  2117.47    0.6656E-04
  2120.34    0.6650E-04
  2123.20    0.6645E-04
  2126.06    0.6641E-04
  2128.93    0.6638E-04
  2131.79    0.6635E-04
  2134.66    0.6634E-04
  2137.52    0.6633E-04
  2140.39    0.6632E-04
  2143.25    0.6633E-04
  2146.11    0.6633E-04
  2148.98    0.6635E-04
  2151.84    0.6637E-04
  2154.71    0.6640E-04
  2157.57    0.6643E-04
  2160.44    0.6647E-04
  2163.30    0.6651E-04
  2166.16    0.6656E-04
  2169.03    0.6662E-04
  2171.89    0.6668E-04
  2174.76    0.6674E-04
  2177.62    0.6681E-04
  2180.49    0.6688E-04
  2183.35    0.6696E-04
  2186.21    0.6705E-04
  2189.08    0.6714E-04
  2191.94    0.6723E-04
  2194.81    0.6733E-04
  2197.67    0.6743E-04
  2200.54    0.6754E-04
  2203.40    0.6765E-04
  2206.27    0.6777E-04
  2209.13    0.6789E-04
  2211.99    0.6802E-04
  2214.86    0.6815E-04
  2217.72    0.6829E-04
  2220.59    0.6843E-04
  2223.45    0.6857E-04
  2226.32    0.6872E-04
  2229.18    0.6888E-04
  2232.04    0.6903E-04
  2234.91    0.6920E-04
  2237.77    0.6937E-04
  2240.64    0.6954E-04
  2243.50    0.6972E-04
  2246.37    0.6990E-04
  2249.23    0.7008E-04
  2252.09    0.7028E-04
  2254.96    0.7047E-04
  2257.82    0.7067E-04
  2260.69    0.7088E-04
  2263.55    0.7109E-04
  2266.42    0.7131E-04
  2269.28    0.7153E-04
  2272.14    0.7175E-04
  2275.01    0.7198E-04
  2277.87    0.7222E-04
  2280.74    0.7246E-04
  2283.60    0.7270E-04
  2286.47    0.7295E-04
  2289.33    0.7321E-04
  2292.19    0.7347E-04
  2295.06    0.7373E-04
  2297.92    0.7400E-04
  2300.79    0.7428E-04
  2303.65    0.7456E-04
  2306.52    0.7484E-04
  2309.38    0.7514E-04
  2312.25    0.7543E-04
  2315.11    0.7574E-04
  2317.97    0.7605E-04
  2320.84    0.7636E-04
  2323.70    0.7668E-04
  2326.57    0.7700E-04
  2329.43    0.7734E-04
  2332.30    0.7767E-04
  2335.16    0.7802E-04
  2338.02    0.7836E-04
  2340.89    0.7872E-04
  2343.75    0.7908E-04
  2346.62    0.7945E-04
  2349.48    0.7982E-04
  2352.35    0.8020E-04
  2355.21    0.8059E-04
  2358.07    0.8098E-04
  2360.94    0.8138E-04
  2363.80    0.8178E-04
  2366.67    0.8220E-04
  2369.53    0.8262E-04
  2372.40    0.8304E-04
  2375.26    0.8348E-04
  2378.12    0.8392E-04
  2380.99    0.8436E-04
  2383.85    0.8482E-04
  2386.72    0.8528E-04
  2389.58    0.8575E-04
  2392.45    0.8623E-04
  2395.31    0.8671E-04
  2398.17    0.8720E-04
  2401.04    0.8771E-04
  2403.90    0.8821E-04
  2406.77    0.8873E-04
  2409.63    0.8926E-04
  2412.50    0.8979E-04
  2415.36    0.9033E-04
  2418.23    0.9088E-04
  2421.09    0.9144E-04
  2423.95    0.9201E-04
  2426.82    0.9258E-04
  2429.68    0.9317E-04
  2432.55    0.9377E-04
  2435.41    0.9437E-04
  2438.28    0.9498E-04
  2441.14    0.9561E-04
  2444.00    0.9624E-04
  2446.87    0.9689E-04
  2449.73    0.9754E-04
  2452.60    0.9821E-04
  2455.46    0.9888E-04
  2458.33    0.9957E-04
  2461.19    0.1003E-03
  2464.05    0.1010E-03
  2466.92    0.1017E-03
  2469.78    0.1024E-03
  2472.65    0.1032E-03
  2475.51    0.1039E-03
  2478.38    0.1047E-03
  2481.24    0.1055E-03
  2484.10    0.1063E-03
  2486.97    0.1071E-03
  2489.83    0.1079E-03
  2492.70    0.1087E-03
  2495.56    0.1096E-03
  2498.43    0.1104E-03
  2501.29    0.1113E-03
  2504.15    0.1122E-03
  2507.02    0.1131E-03
  2509.88    0.1140E-03
  2512.75    0.1149E-03
  2515.61    0.1159E-03
  2518.48    0.1168E-03
  2521.34    0.1178E-03
  2524.21    0.1188E-03
  2527.07    0.1198E-03
  2529.93    0.1208E-03
  2532.80    0.1219E-03
  2535.66    0.1229E-03
  2538.53    0.1240E-03
  2541.39    0.1251E-03
  2544.26    0.1262E-03
  2547.12    0.1274E-03
  2549.98    0.1285E-03
  2552.85    0.1297E-03
  2555.71    0.1309E-03
  2558.58    0.1321E-03
  2561.44    0.1333E-03
  2564.31    0.1346E-03
  2567.17    0.1359E-03
  2570.03    0.1372E-03
  2572.90    0.1385E-03
  2575.76    0.1399E-03
  2578.63    0.1412E-03
  2581.49    0.1426E-03
  2584.36    0.1441E-03
  2587.22    0.1455E-03
  2590.08    0.1470E-03
  2592.95    0.1485E-03
  2595.81    0.1500E-03
  2598.68    0.1516E-03
  2601.54    0.1532E-03
  2604.41    0.1548E-03
  2607.27    0.1564E-03
  2610.13    0.1581E-03
  2613.00    0.1598E-03
  2615.86    0.1616E-03
  2618.73    0.1633E-03
  2621.59    0.1652E-03
  2624.46    0.1670E-03
  2627.32    0.1689E-03
  2630.19    0.1708E-03
  2633.05    0.1728E-03
  2635.91    0.1748E-03
  2638.78    0.1768E-03
  2641.64    0.1789E-03
  2644.51    0.1810E-03
  2647.37    0.1831E-03
  2650.24    0.1853E-03
  2653.10    0.1876E-03
  2655.96    0.1899E-03
  2658.83    0.1922E-03
  2661.69    0.1946E-03
  2664.56    0.1970E-03
  2667.42    0.1995E-03
  2670.29    0.2021E-03
  2673.15    0.2047E-03
  2676.01    0.2073E-03
  2678.88    0.2100E-03
  2681.74    0.2128E-03
  2684.61    0.2156E-03
  2687.47    0.2185E-03
  2690.34    0.2215E-03
  2693.20    0.2245E-03
  2696.06    0.2276E-03
  2698.93    0.2307E-03
  2701.79    0.2340E-03
  2704.66    0.2373E-03
  2707.52    0.2407E-03
  2710.39    0.2441E-03
  2713.25    0.2477E-03
  2716.11    0.2513E-03
  2718.98    0.2550E-03
  2721.84    0.2588E-03
  2724.71    0.2627E-03
  2727.57    0.2667E-03
  2730.44    0.2707E-03
  2733.30    0.2749E-03
  2736.17    0.2792E-03
  2739.03    0.2836E-03
  2741.89    0.2881E-03
  2744.76    0.2927E-03
  2747.62    0.2975E-03
  2750.49    0.3024E-03
  2753.35    0.3073E-03
  2756.22    0.3125E-03
  2759.08    0.3177E-03
  2761.94    0.3231E-03
  2764.81    0.3287E-03
  2767.67    0.3344E-03
  2770.54    0.3402E-03
  2773.40    0.3463E-03
  2776.27    0.3525E-03
  2779.13    0.3588E-03
  2781.99    0.3654E-03
  2784.86    0.3721E-03
  2787.72    0.3790E-03
  2790.59    0.3862E-03
  2793.45    0.3935E-03
  2796.32    0.4011E-03
  2799.18    0.4089E-03
  2802.04    0.4170E-03
  2804.91    0.4253E-03
  2807.77    0.4338E-03
  2810.64    0.4426E-03
  2813.50    0.4517E-03
  2816.37    0.4611E-03
  2819.23    0.4709E-03
  2822.09    0.4809E-03
  2824.96    0.4912E-03
  2827.82    0.5020E-03
  2830.69    0.5130E-03
  2833.55    0.5245E-03
  2836.42    0.5364E-03
  2839.28    0.5487E-03
  2842.15    0.5614E-03
  2845.01    0.5746E-03
  2847.87    0.5883E-03
  2850.74    0.6025E-03
  2853.60    0.6172E-03
  2856.47    0.6325E-03
  2859.33    0.6484E-03
  2862.20    0.6649E-03
  2865.06    0.6820E-03
  2867.92    0.6999E-03
  2870.79    0.7185E-03
  2873.65    0.7378E-03
  2876.52    0.7580E-03
  2879.38    0.7791E-03
  2882.25    0.8010E-03
  2885.11    0.8239E-03
  2887.97    0.8478E-03
  2890.84    0.8729E-03
  2893.70    0.8990E-03
  2896.57    0.9265E-03
  2899.43    0.9552E-03
  2902.30    0.9853E-03
  2905.16    0.1017E-02
  2908.02    0.1050E-02
  2910.89    0.1085E-02
  2913.75    0.1122E-02
  2916.62    0.1160E-02
  2919.48    0.1201E-02
  2922.35    0.1244E-02
  2925.21    0.1289E-02
  2928.07    0.1337E-02
  2930.94    0.1388E-02
  2933.80    0.1442E-02
  2936.67    0.1499E-02
  2939.53    0.1559E-02
  2942.40    0.1623E-02
  2945.26    0.1692E-02
  2948.12    0.1765E-02
  2950.99    0.1843E-02
  2953.85    0.1927E-02
  2956.72    0.2016E-02
  2959.58    0.2113E-02
  2962.45    0.2216E-02
  2965.31    0.2327E-02
  2968.18    0.2448E-02
  2971.04    0.2578E-02
  2973.90    0.2719E-02
  2976.77    0.2872E-02
  2979.63    0.3039E-02
  2982.50    0.3222E-02
  2985.36    0.3422E-02
  2988.23    0.3642E-02
  2991.09    0.3884E-02
  2993.95    0.4153E-02
  2996.82    0.4451E-02
  2999.68    0.4784E-02
  3002.55    0.5157E-02
  3005.41    0.5577E-02
  3008.28    0.6052E-02
  3011.14    0.6592E-02
  3014.00    0.7211E-02
  3016.87    0.7925E-02
  3019.73    0.8753E-02
  3022.60    0.9723E-02
  3025.46    0.1087E-01
  3028.33    0.1223E-01
  3031.19    0.1388E-01
  3034.05    0.1589E-01
  3036.92    0.1838E-01
  3039.78    0.2151E-01
  3042.65    0.2550E-01
  3045.51    0.3070E-01
  3048.38    0.3761E-01
  3051.24    0.4696E-01
  3054.10    0.5986E-01
  3056.97    0.7782E-01
  3059.83    0.1026    
  3062.70    0.1345    
  3065.56    0.1691    
  3068.43    0.1928    
  3071.29    0.1906    
  3074.16    0.1642    
  3077.02    0.1300    
  3079.88    0.1003    
  3082.75    0.7814E-01
  3085.61    0.6263E-01
  3088.48    0.5205E-01
  3091.34    0.4504E-01
  3094.21    0.4067E-01
  3097.07    0.3840E-01
  3099.93    0.3798E-01
  3102.80    0.3940E-01
  3105.66    0.4287E-01
  3108.53    0.4891E-01
  3111.39    0.5837E-01
  3114.26    0.7247E-01
  3117.12    0.9233E-01
  3119.98    0.1174    
  3122.85    0.1414    
  3125.71    0.1514    
  3128.58    0.1395    
  3131.44    0.1140    
  3134.31    0.8780E-01
  3137.17    0.6675E-01
  3140.03    0.5129E-01
  3142.90    0.4018E-01
  3145.76    0.3214E-01
  3148.63    0.2624E-01
  3151.49    0.2181E-01
  3154.36    0.1841E-01
  3157.22    0.1576E-01
  3160.08    0.1366E-01
  3162.95    0.1196E-01
  3165.81    0.1056E-01
  3168.68    0.9409E-02
  3171.54    0.8441E-02
  3174.41    0.7620E-02
  3177.27    0.6919E-02
  3180.14    0.6313E-02
  3183.00    0.5788E-02
  3185.86    0.5327E-02
  3188.73    0.4922E-02
