
 ------------------------------------------------------------
     normal          Raman Scattering Plot
 ------------------------------------------------------------
 Excitation wavelength  514.50 nm
 Convolution lineshape is lorentzian  
 FWHM   20.00  1/cm
 ------------------------------------------------------------
 ------------------------------------------------------------
 # of frequencies :    48
 ------------------------------------------------------------
 #  freq [ 1/cm]  S [Ang**4/amu]
 ------------------------------------------------------------
   1    13.71        1.3085
   2    40.70       74.5404
   3    42.15        9.3457
   4    82.87       14.9520
   5    83.16        0.0049
   6   135.03        4.0837
   7   135.06        6.6832
   8   195.53        1.9193
   9   195.71        5.1501
  10   240.08       76.6607
  11   260.84        1.5017
  12   260.90        1.8961
  13   322.22       14.3768
  14   322.24        2.6966
  15   408.83      145.0128
  16   408.85        3.8960
  17   462.03        0.5186
  18   462.03        0.6640
  19   481.92        0.1191
  20   514.21        1.3800
  21   514.23        1.7861
  22   564.76        0.0004
  23   564.82        0.8058
  24   608.75       12.3352
  25   608.82       18.0827
  26   640.99      216.3204
  27   640.99        0.1658
  28   664.17       50.2556
  29   664.28      374.9490
  30   681.32        3.8619
  31   681.36        0.1421
  32   708.08       87.5597
  33   708.09       87.5503
  34   720.16      113.0737
  35   947.09        4.6779
  36  1159.54       70.4763
  37  1354.16       13.3116
  38  1525.89       97.9841
  39  1968.58     2256.9068
  40  1985.25   206793.2968
  41  2026.01     1525.6817
  42  2087.24        4.3557
  43  2148.35      105.2924
  44  2155.37     3365.5747
  45  2198.56      445.9455
  46  2202.98    17626.4286
  47  3427.64       75.9549
  48  3440.95      994.4787
 ------------------------------------------------------------
   -42.74    0.5672    
   -39.19    0.6223    
   -35.64    0.6862    
   -32.09    0.7610    
   -28.54    0.8493    
   -24.99    0.9550    
   -21.44     1.083    
   -17.89     1.241    
   -14.34     1.438    
   -10.78     1.691    
    -7.23     2.023    
    -3.68     2.473    
    -0.13     3.099    
     3.42     3.984    
     6.97     5.198    
    10.52     6.617    
    14.07     7.720    
    17.62     8.234    
    21.17     8.830    
    24.72     10.28    
    28.27     13.10    
    31.83     17.73    
    35.38     24.12    
    38.93     29.84    
    42.48     30.04    
    46.03     24.39    
    49.58     17.67    
    53.13     12.52    
    56.68     9.073    
    60.23     6.817    
    63.78     5.336    
    67.33     4.366    
    70.88     3.761    
    74.43     3.441    
    77.99     3.332    
    81.54     3.252    
    85.09     2.951    
    88.64     2.453    
    92.19     1.978    
    95.74     1.615    
    99.29     1.352    
   102.84     1.161    
   106.39     1.019    
   109.94    0.9139    
   113.49    0.8366    
   117.04    0.7844    
   120.59    0.7577    
   124.15    0.7605    
   127.70    0.7968    
   131.25    0.8535    
   134.80    0.8729    
   138.35    0.8005    
   141.90    0.6785    
   145.45    0.5688    
   149.00    0.4876    
   152.55    0.4295    
   156.10    0.3873    
   159.65    0.3559    
   163.20    0.3321    
   166.76    0.3142    
   170.31    0.3013    
   173.86    0.2932    
   177.41    0.2903    
   180.96    0.2939    
   184.51    0.3062    
   188.06    0.3294    
   191.61    0.3603    
   195.16    0.3803    
   198.71    0.3696    
   202.26    0.3415    
   205.81    0.3197    
   209.36    0.3124    
   212.92    0.3202    
   216.47    0.3442    
   220.02    0.3884    
   223.57    0.4615    
   227.12    0.5781    
   230.67    0.7578    
   234.22     1.006    
   237.77     1.244    
   241.32     1.284    
   244.87     1.082    
   248.42    0.8197    
   251.97    0.6175    
   255.52    0.4848    
   259.08    0.3988    
   262.63    0.3347    
   266.18    0.2813    
   269.73    0.2392    
   273.28    0.2080    
   276.83    0.1852    
   280.38    0.1684    
   283.93    0.1561    
   287.48    0.1471    
   291.03    0.1408    
   294.58    0.1372    
   298.13    0.1363    
   301.69    0.1386    
   305.24    0.1452    
   308.79    0.1580    
   312.34    0.1799    
   315.89    0.2120    
   319.44    0.2456    
   322.99    0.2550    
   326.54    0.2283    
   330.09    0.1897    
   333.64    0.1585    
   337.19    0.1373    
   340.74    0.1237    
   344.29    0.1151    
   347.85    0.1100    
   351.40    0.1073    
   354.95    0.1067    
   358.50    0.1077    
   362.05    0.1105    
   365.60    0.1153    
   369.15    0.1222    
   372.70    0.1321    
   376.25    0.1458    
   379.80    0.1649    
   383.35    0.1919    
   386.90    0.2306    
   390.46    0.2875    
   394.01    0.3735    
   397.56    0.5042    
   401.11    0.6954    
   404.66    0.9274    
   408.21     1.076    
   411.76    0.9980    
   415.31    0.7737    
   418.86    0.5606    
   422.41    0.4083    
   425.96    0.3073    
   429.51    0.2401    
   433.06    0.1944    
   436.62    0.1624    
   440.17    0.1394    
   443.72    0.1224    
   447.27    0.1098    
   450.82    0.1005    
   454.37    0.9371E-01
   457.92    0.8880E-01
   461.47    0.8454E-01
   465.02    0.7973E-01
   468.57    0.7475E-01
   472.12    0.7051E-01
   475.67    0.6723E-01
   479.22    0.6474E-01
   482.78    0.6278E-01
   486.33    0.6120E-01
   489.88    0.6004E-01
   493.43    0.5939E-01
   496.98    0.5934E-01
   500.53    0.6004E-01
   504.08    0.6172E-01
   507.63    0.6452E-01
   511.18    0.6771E-01
   514.73    0.6886E-01
   518.28    0.6662E-01
   521.83    0.6313E-01
   525.39    0.6039E-01
   528.94    0.5875E-01
   532.49    0.5797E-01
   536.04    0.5781E-01
   539.59    0.5815E-01
   543.14    0.5889E-01
   546.69    0.6002E-01
   550.24    0.6158E-01
   553.79    0.6361E-01
   557.34    0.6621E-01
   560.89    0.6932E-01
   564.44    0.7255E-01
   567.99    0.7552E-01
   571.55    0.7870E-01
   575.10    0.8277E-01
   578.65    0.8813E-01
   582.20    0.9511E-01
   585.75    0.1042    
   589.30    0.1162    
   592.85    0.1323    
   596.40    0.1547    
   599.95    0.1858    
   603.50    0.2259    
   607.05    0.2657    
   610.60    0.2865    
   614.15    0.2905    
   617.71    0.3007    
   621.26    0.3320    
   624.81    0.3922    
   628.36    0.4914    
   631.91    0.6436    
   635.46    0.8509    
   639.01     1.054    
   642.56     1.125    
   646.11     1.064    
   649.66     1.016    
   653.21     1.081    
   656.76     1.282    
   660.32     1.571    
   663.87     1.741    
   667.42     1.583    
   670.97     1.233    
   674.52    0.9186    
   678.07    0.7025    
   681.62    0.5666    
   685.17    0.4855    
   688.72    0.4460    
   692.27    0.4442    
   695.82    0.4827    
   699.37    0.5683    
   702.92    0.6988    
   706.48    0.8250    
   710.03    0.8582    
   713.58    0.8081    
   717.13    0.7518    
   720.68    0.6785    
   724.23    0.5563    
   727.78    0.4251    
   731.33    0.3224    
   734.88    0.2507    
   738.43    0.2014    
   741.98    0.1668    
   745.53    0.1417    
   749.08    0.1230    
   752.64    0.1086    
   756.19    0.9726E-01
   759.74    0.8817E-01
   763.29    0.8074E-01
   766.84    0.7458E-01
   770.39    0.6940E-01
   773.94    0.6500E-01
   777.49    0.6122E-01
   781.04    0.5795E-01
   784.59    0.5509E-01
   788.14    0.5258E-01
   791.69    0.5036E-01
   795.25    0.4838E-01
   798.80    0.4662E-01
   802.35    0.4504E-01
   805.90    0.4361E-01
   809.45    0.4232E-01
   813.00    0.4115E-01
   816.55    0.4009E-01
   820.10    0.3911E-01
   823.65    0.3823E-01
   827.20    0.3741E-01
   830.75    0.3667E-01
   834.30    0.3598E-01
   837.85    0.3535E-01
   841.41    0.3476E-01
   844.96    0.3423E-01
   848.51    0.3373E-01
   852.06    0.3327E-01
   855.61    0.3285E-01
   859.16    0.3245E-01
   862.71    0.3209E-01
   866.26    0.3176E-01
   869.81    0.3145E-01
   873.36    0.3117E-01
   876.91    0.3091E-01
   880.46    0.3068E-01
   884.01    0.3046E-01
   887.57    0.3027E-01
   891.12    0.3010E-01
   894.67    0.2996E-01
   898.22    0.2984E-01
   901.77    0.2974E-01
   905.32    0.2968E-01
   908.87    0.2964E-01
   912.42    0.2966E-01
   915.97    0.2972E-01
   919.52    0.2986E-01
   923.07    0.3011E-01
   926.62    0.3051E-01
   930.18    0.3115E-01
   933.73    0.3217E-01
   937.28    0.3374E-01
   940.83    0.3595E-01
   944.38    0.3822E-01
   947.93    0.3885E-01
   951.48    0.3714E-01
   955.03    0.3468E-01
   958.58    0.3269E-01
   962.13    0.3133E-01
   965.68    0.3043E-01
   969.23    0.2984E-01
   972.78    0.2944E-01
   976.34    0.2917E-01
   979.89    0.2898E-01
   983.44    0.2884E-01
   986.99    0.2876E-01
   990.54    0.2870E-01
   994.09    0.2867E-01
   997.64    0.2866E-01
  1001.19    0.2867E-01
  1004.74    0.2869E-01
  1008.29    0.2872E-01
  1011.84    0.2877E-01
  1015.39    0.2882E-01
  1018.94    0.2889E-01
  1022.50    0.2896E-01
  1026.05    0.2905E-01
  1029.60    0.2914E-01
  1033.15    0.2924E-01
  1036.70    0.2935E-01
  1040.25    0.2947E-01
  1043.80    0.2960E-01
  1047.35    0.2974E-01
  1050.90    0.2989E-01
  1054.45    0.3005E-01
  1058.00    0.3022E-01
  1061.55    0.3040E-01
  1065.11    0.3060E-01
  1068.66    0.3082E-01
  1072.21    0.3105E-01
  1075.76    0.3130E-01
  1079.31    0.3157E-01
  1082.86    0.3187E-01
  1086.41    0.3220E-01
  1089.96    0.3256E-01
  1093.51    0.3297E-01
  1097.06    0.3343E-01
  1100.61    0.3394E-01
  1104.16    0.3454E-01
  1107.71    0.3523E-01
  1111.27    0.3604E-01
  1114.82    0.3701E-01
  1118.37    0.3819E-01
  1121.92    0.3965E-01
  1125.47    0.4150E-01
  1129.02    0.4389E-01
  1132.57    0.4709E-01
  1136.12    0.5148E-01
  1139.67    0.5772E-01
  1143.22    0.6686E-01
  1146.77    0.8061E-01
  1150.32    0.1011    
  1153.87    0.1287    
  1157.43    0.1542    
  1160.98    0.1573    
  1164.53    0.1349    
  1168.08    0.1069    
  1171.63    0.8534E-01
  1175.18    0.7087E-01
  1178.73    0.6138E-01
  1182.28    0.5509E-01
  1185.83    0.5080E-01
  1189.38    0.4782E-01
  1192.93    0.4570E-01
  1196.48    0.4416E-01
  1200.04    0.4304E-01
  1203.59    0.4223E-01
  1207.14    0.4163E-01
  1210.69    0.4120E-01
  1214.24    0.4090E-01
  1217.79    0.4070E-01
  1221.34    0.4058E-01
  1224.89    0.4053E-01
  1228.44    0.4053E-01
  1231.99    0.4058E-01
  1235.54    0.4067E-01
  1239.09    0.4078E-01
  1242.64    0.4093E-01
  1246.20    0.4111E-01
  1249.75    0.4130E-01
  1253.30    0.4152E-01
  1256.85    0.4175E-01
  1260.40    0.4201E-01
  1263.95    0.4227E-01
  1267.50    0.4256E-01
  1271.05    0.4286E-01
  1274.60    0.4318E-01
  1278.15    0.4351E-01
  1281.70    0.4385E-01
  1285.25    0.4421E-01
  1288.80    0.4459E-01
  1292.36    0.4499E-01
  1295.91    0.4540E-01
  1299.46    0.4584E-01
  1303.01    0.4630E-01
  1306.56    0.4679E-01
  1310.11    0.4731E-01
  1313.66    0.4788E-01
  1317.21    0.4850E-01
  1320.76    0.4919E-01
  1324.31    0.4999E-01
  1327.86    0.5092E-01
  1331.41    0.5207E-01
  1334.97    0.5354E-01
  1338.52    0.5550E-01
  1342.07    0.5825E-01
  1345.62    0.6210E-01
  1349.17    0.6695E-01
  1352.72    0.7097E-01
  1356.27    0.7105E-01
  1359.82    0.6767E-01
  1363.37    0.6398E-01
  1366.92    0.6140E-01
  1370.47    0.5987E-01
  1374.02    0.5906E-01
  1377.57    0.5871E-01
  1381.13    0.5866E-01
  1384.68    0.5881E-01
  1388.23    0.5910E-01
  1391.78    0.5948E-01
  1395.33    0.5994E-01
  1398.88    0.6046E-01
  1402.43    0.6102E-01
  1405.98    0.6163E-01
  1409.53    0.6227E-01
  1413.08    0.6294E-01
  1416.63    0.6365E-01
  1420.18    0.6438E-01
  1423.73    0.6514E-01
  1427.29    0.6593E-01
  1430.84    0.6675E-01
  1434.39    0.6761E-01
  1437.94    0.6849E-01
  1441.49    0.6940E-01
  1445.04    0.7036E-01
  1448.59    0.7135E-01
  1452.14    0.7239E-01
  1455.69    0.7347E-01
  1459.24    0.7461E-01
  1462.79    0.7582E-01
  1466.34    0.7710E-01
  1469.90    0.7847E-01
  1473.45    0.7994E-01
  1477.00    0.8155E-01
  1480.55    0.8332E-01
  1484.10    0.8530E-01
  1487.65    0.8756E-01
  1491.20    0.9020E-01
  1494.75    0.9336E-01
  1498.30    0.9726E-01
  1501.85    0.1023    
  1505.40    0.1090    
  1508.95    0.1183    
  1512.50    0.1318    
  1516.06    0.1515    
  1519.61    0.1784    
  1523.16    0.2060    
  1526.71    0.2150    
  1530.26    0.1976    
  1533.81    0.1713    
  1537.36    0.1503    
  1540.91    0.1364    
  1544.46    0.1278    
  1548.01    0.1226    
  1551.56    0.1196    
  1555.11    0.1179    
  1558.66    0.1172    
  1562.22    0.1171    
  1565.77    0.1175    
  1569.32    0.1182    
  1572.87    0.1192    
  1576.42    0.1204    
  1579.97    0.1218    
  1583.52    0.1233    
  1587.07    0.1250    
  1590.62    0.1268    
  1594.17    0.1287    
  1597.72    0.1307    
  1601.27    0.1328    
  1604.83    0.1349    
  1608.38    0.1372    
  1611.93    0.1396    
  1615.48    0.1420    
  1619.03    0.1445    
  1622.58    0.1472    
  1626.13    0.1499    
  1629.68    0.1527    
  1633.23    0.1556    
  1636.78    0.1586    
  1640.33    0.1617    
  1643.88    0.1649    
  1647.43    0.1682    
  1650.99    0.1717    
  1654.54    0.1752    
  1658.09    0.1789    
  1661.64    0.1827    
  1665.19    0.1866    
  1668.74    0.1906    
  1672.29    0.1948    
  1675.84    0.1992    
  1679.39    0.2037    
  1682.94    0.2083    
  1686.49    0.2132    
  1690.04    0.2182    
  1693.59    0.2234    
  1697.15    0.2287    
  1700.70    0.2343    
  1704.25    0.2401    
  1707.80    0.2462    
  1711.35    0.2524    
  1714.90    0.2589    
  1718.45    0.2657    
  1722.00    0.2727    
  1725.55    0.2801    
  1729.10    0.2877    
  1732.65    0.2957    
  1736.20    0.3040    
  1739.76    0.3126    
  1743.31    0.3217    
  1746.86    0.3311    
  1750.41    0.3410    
  1753.96    0.3513    
  1757.51    0.3622    
  1761.06    0.3735    
  1764.61    0.3854    
  1768.16    0.3978    
  1771.71    0.4109    
  1775.26    0.4247    
  1778.81    0.4392    
  1782.36    0.4544    
  1785.92    0.4704    
  1789.47    0.4873    
  1793.02    0.5052    
  1796.57    0.5241    
  1800.12    0.5440    
  1803.67    0.5652    
  1807.22    0.5876    
  1810.77    0.6113    
  1814.32    0.6366    
  1817.87    0.6634    
  1821.42    0.6920    
  1824.97    0.7226    
  1828.52    0.7552    
  1832.08    0.7901    
  1835.63    0.8274    
  1839.18    0.8675    
  1842.73    0.9106    
  1846.28    0.9571    
  1849.83     1.007    
  1853.38     1.061    
  1856.93     1.120    
  1860.48     1.184    
  1864.03     1.253    
  1867.58     1.329    
  1871.13     1.411    
  1874.69     1.502    
  1878.24     1.602    
  1881.79     1.712    
  1885.34     1.834    
  1888.89     1.970    
  1892.44     2.121    
  1895.99     2.290    
  1899.54     2.480    
  1903.09     2.695    
  1906.64     2.940    
  1910.19     3.219    
  1913.74     3.540    
  1917.29     3.912    
  1920.85     4.345    
  1924.40     4.854    
  1927.95     5.457    
  1931.50     6.180    
  1935.05     7.055    
  1938.60     8.129    
  1942.15     9.465    
  1945.70     11.15    
  1949.25     13.33    
  1952.80     16.19    
  1956.35     20.05    
  1959.90     25.37    
  1963.45     32.86    
  1967.01     43.48    
  1970.56     58.81    
  1974.11     81.68    
  1977.66     115.1    
  1981.21     155.2    
  1984.76     179.8    
  1988.31     164.7    
  1991.86     125.4    
  1995.41     88.77    
  1998.96     62.75    
  2002.51     45.52    
  2006.06     34.12    
  2009.62     26.40    
  2013.17     21.06    
  2016.72     17.30    
  2020.27     14.64    
  2023.82     12.66    
  2027.37     10.96    
  2030.92     9.366    
  2034.47     7.980    
  2038.02     6.862    
  2041.57     5.974    
  2045.12     5.260    
  2048.67     4.677    
  2052.22     4.193    
  2055.78     3.786    
  2059.33     3.439    
  2062.88     3.143    
  2066.43     2.886    
  2069.98     2.664    
  2073.53     2.469    
  2077.08     2.299    
  2080.63     2.150    
  2084.18     2.019    
  2087.73     1.903    
  2091.28     1.801    
  2094.83     1.711    
  2098.39     1.633    
  2101.94     1.566    
  2105.49     1.511    
  2109.04     1.466    
  2112.59     1.432    
  2116.14     1.410    
  2119.69     1.402    
  2123.24     1.410    
  2126.79     1.439    
  2130.34     1.496    
  2133.89     1.593    
  2137.44     1.749    
  2140.99     1.994    
  2144.55     2.368    
  2148.10     2.898    
  2151.65     3.501    
  2155.20     3.844    
  2158.75     3.629    
  2162.30     3.132    
  2165.85     2.731    
  2169.40     2.531    
  2172.95     2.518    
  2176.50     2.678    
  2180.05     3.027    
  2183.60     3.623    
  2187.15     4.577    
  2190.71     6.071    
  2194.26     8.315    
  2197.81     11.23    
  2201.36     13.60    
  2204.91     13.37    
  2208.46     10.71    
  2212.01     7.778    
  2215.56     5.579    
  2219.11     4.103    
  2222.66     3.122    
  2226.21     2.456    
  2229.76     1.989    
  2233.32     1.652    
  2236.87     1.401    
  2240.42     1.209    
  2243.97     1.060    
  2247.52    0.9405    
  2251.07    0.8438    
  2254.62    0.7640    
  2258.17    0.6974    
  2261.72    0.6411    
  2265.27    0.5929    
  2268.82    0.5512    
  2272.37    0.5149    
  2275.92    0.4830    
  2279.48    0.4548    
  2283.03    0.4296    
  2286.58    0.4070    
  2290.13    0.3867    
  2293.68    0.3682    
  2297.23    0.3514    
  2300.78    0.3360    
  2304.33    0.3219    
  2307.88    0.3089    
  2311.43    0.2969    
  2314.98    0.2857    
  2318.53    0.2753    
  2322.08    0.2657    
  2325.64    0.2566    
  2329.19    0.2481    
  2332.74    0.2401    
  2336.29    0.2326    
  2339.84    0.2255    
  2343.39    0.2188    
  2346.94    0.2124    
  2350.49    0.2064    
  2354.04    0.2007    
  2357.59    0.1953    
  2361.14    0.1901    
  2364.69    0.1852    
  2368.25    0.1804    
  2371.80    0.1759    
  2375.35    0.1716    
  2378.90    0.1675    
  2382.45    0.1636    
  2386.00    0.1598    
  2389.55    0.1561    
  2393.10    0.1526    
  2396.65    0.1492    
  2400.20    0.1460    
  2403.75    0.1429    
  2407.30    0.1398    
  2410.85    0.1369    
  2414.41    0.1341    
  2417.96    0.1314    
  2421.51    0.1288    
  2425.06    0.1263    
  2428.61    0.1238    
  2432.16    0.1214    
  2435.71    0.1191    
  2439.26    0.1169    
  2442.81    0.1147    
  2446.36    0.1127    
  2449.91    0.1106    
  2453.46    0.1086    
  2457.01    0.1067    
  2460.57    0.1049    
  2464.12    0.1031    
  2467.67    0.1013    
  2471.22    0.9959E-01
  2474.77    0.9793E-01
  2478.32    0.9631E-01
  2481.87    0.9474E-01
  2485.42    0.9320E-01
  2488.97    0.9171E-01
  2492.52    0.9025E-01
  2496.07    0.8883E-01
  2499.62    0.8744E-01
  2503.18    0.8609E-01
  2506.73    0.8478E-01
  2510.28    0.8349E-01
  2513.83    0.8224E-01
  2517.38    0.8101E-01
  2520.93    0.7981E-01
  2524.48    0.7865E-01
  2528.03    0.7751E-01
  2531.58    0.7639E-01
  2535.13    0.7530E-01
  2538.68    0.7423E-01
  2542.23    0.7319E-01
  2545.78    0.7217E-01
  2549.34    0.7118E-01
  2552.89    0.7020E-01
  2556.44    0.6925E-01
  2559.99    0.6831E-01
  2563.54    0.6740E-01
  2567.09    0.6651E-01
  2570.64    0.6563E-01
  2574.19    0.6477E-01
  2577.74    0.6393E-01
  2581.29    0.6311E-01
  2584.84    0.6230E-01
  2588.39    0.6151E-01
  2591.94    0.6073E-01
  2595.50    0.5997E-01
  2599.05    0.5923E-01
  2602.60    0.5849E-01
  2606.15    0.5778E-01
  2609.70    0.5707E-01
  2613.25    0.5638E-01
  2616.80    0.5571E-01
  2620.35    0.5504E-01
  2623.90    0.5439E-01
  2627.45    0.5375E-01
  2631.00    0.5312E-01
  2634.55    0.5250E-01
  2638.11    0.5190E-01
  2641.66    0.5130E-01
  2645.21    0.5072E-01
  2648.76    0.5014E-01
  2652.31    0.4958E-01
  2655.86    0.4902E-01
  2659.41    0.4848E-01
  2662.96    0.4794E-01
  2666.51    0.4741E-01
  2670.06    0.4690E-01
  2673.61    0.4639E-01
  2677.16    0.4589E-01
  2680.71    0.4540E-01
  2684.27    0.4491E-01
  2687.82    0.4444E-01
  2691.37    0.4397E-01
  2694.92    0.4351E-01
  2698.47    0.4305E-01
  2702.02    0.4261E-01
  2705.57    0.4217E-01
  2709.12    0.4174E-01
  2712.67    0.4131E-01
  2716.22    0.4089E-01
  2719.77    0.4048E-01
  2723.32    0.4008E-01
  2726.87    0.3968E-01
  2730.43    0.3929E-01
  2733.98    0.3890E-01
  2737.53    0.3852E-01
  2741.08    0.3814E-01
  2744.63    0.3777E-01
  2748.18    0.3741E-01
  2751.73    0.3705E-01
  2755.28    0.3670E-01
  2758.83    0.3635E-01
  2762.38    0.3601E-01
  2765.93    0.3567E-01
  2769.48    0.3533E-01
  2773.04    0.3501E-01
  2776.59    0.3468E-01
  2780.14    0.3436E-01
  2783.69    0.3405E-01
  2787.24    0.3374E-01
  2790.79    0.3343E-01
  2794.34    0.3313E-01
  2797.89    0.3283E-01
  2801.44    0.3254E-01
  2804.99    0.3225E-01
  2808.54    0.3197E-01
  2812.09    0.3169E-01
  2815.64    0.3141E-01
  2819.20    0.3114E-01
  2822.75    0.3087E-01
  2826.30    0.3060E-01
  2829.85    0.3034E-01
  2833.40    0.3008E-01
  2836.95    0.2982E-01
  2840.50    0.2957E-01
  2844.05    0.2932E-01
  2847.60    0.2908E-01
  2851.15    0.2883E-01
  2854.70    0.2859E-01
  2858.25    0.2836E-01
  2861.80    0.2812E-01
  2865.36    0.2789E-01
  2868.91    0.2767E-01
  2872.46    0.2744E-01
  2876.01    0.2722E-01
  2879.56    0.2700E-01
  2883.11    0.2679E-01
  2886.66    0.2657E-01
  2890.21    0.2636E-01
  2893.76    0.2615E-01
  2897.31    0.2595E-01
  2900.86    0.2575E-01
  2904.41    0.2554E-01
  2907.97    0.2535E-01
  2911.52    0.2515E-01
  2915.07    0.2496E-01
  2918.62    0.2477E-01
  2922.17    0.2458E-01
  2925.72    0.2439E-01
  2929.27    0.2421E-01
  2932.82    0.2403E-01
  2936.37    0.2385E-01
  2939.92    0.2367E-01
  2943.47    0.2350E-01
  2947.02    0.2332E-01
  2950.57    0.2315E-01
  2954.13    0.2298E-01
  2957.68    0.2282E-01
  2961.23    0.2265E-01
  2964.78    0.2249E-01
  2968.33    0.2233E-01
  2971.88    0.2217E-01
  2975.43    0.2201E-01
  2978.98    0.2185E-01
  2982.53    0.2170E-01
  2986.08    0.2155E-01
  2989.63    0.2140E-01
  2993.18    0.2125E-01
  2996.73    0.2110E-01
  3000.29    0.2096E-01
  3003.84    0.2081E-01
  3007.39    0.2067E-01
  3010.94    0.2053E-01
  3014.49    0.2039E-01
  3018.04    0.2025E-01
  3021.59    0.2012E-01
  3025.14    0.1999E-01
  3028.69    0.1985E-01
  3032.24    0.1972E-01
  3035.79    0.1959E-01
  3039.34    0.1947E-01
  3042.90    0.1934E-01
  3046.45    0.1921E-01
  3050.00    0.1909E-01
  3053.55    0.1897E-01
  3057.10    0.1885E-01
  3060.65    0.1873E-01
  3064.20    0.1861E-01
  3067.75    0.1850E-01
  3071.30    0.1838E-01
  3074.85    0.1827E-01
  3078.40    0.1815E-01
  3081.95    0.1804E-01
  3085.50    0.1793E-01
  3089.06    0.1783E-01
  3092.61    0.1772E-01
  3096.16    0.1761E-01
  3099.71    0.1751E-01
  3103.26    0.1741E-01
  3106.81    0.1730E-01
  3110.36    0.1720E-01
  3113.91    0.1710E-01
  3117.46    0.1701E-01
  3121.01    0.1691E-01
  3124.56    0.1681E-01
  3128.11    0.1672E-01
  3131.66    0.1663E-01
  3135.22    0.1654E-01
  3138.77    0.1645E-01
  3142.32    0.1636E-01
  3145.87    0.1627E-01
  3149.42    0.1618E-01
  3152.97    0.1610E-01
  3156.52    0.1601E-01
  3160.07    0.1593E-01
  3163.62    0.1585E-01
  3167.17    0.1577E-01
  3170.72    0.1569E-01
  3174.27    0.1562E-01
  3177.83    0.1554E-01
  3181.38    0.1547E-01
  3184.93    0.1539E-01
  3188.48    0.1532E-01
  3192.03    0.1525E-01
  3195.58    0.1518E-01
  3199.13    0.1512E-01
  3202.68    0.1505E-01
  3206.23    0.1499E-01
  3209.78    0.1493E-01
  3213.33    0.1487E-01
  3216.88    0.1481E-01
  3220.43    0.1475E-01
  3223.99    0.1470E-01
  3227.54    0.1465E-01
  3231.09    0.1460E-01
  3234.64    0.1455E-01
  3238.19    0.1450E-01
  3241.74    0.1446E-01
  3245.29    0.1442E-01
  3248.84    0.1438E-01
  3252.39    0.1435E-01
  3255.94    0.1431E-01
  3259.49    0.1428E-01
  3263.04    0.1426E-01
  3266.59    0.1424E-01
  3270.15    0.1422E-01
  3273.70    0.1420E-01
  3277.25    0.1419E-01
  3280.80    0.1419E-01
  3284.35    0.1418E-01
  3287.90    0.1419E-01
  3291.45    0.1420E-01
  3295.00    0.1422E-01
  3298.55    0.1424E-01
  3302.10    0.1427E-01
  3305.65    0.1431E-01
  3309.20    0.1436E-01
  3312.76    0.1442E-01
  3316.31    0.1449E-01
  3319.86    0.1458E-01
  3323.41    0.1467E-01
  3326.96    0.1479E-01
  3330.51    0.1492E-01
  3334.06    0.1507E-01
  3337.61    0.1524E-01
  3341.16    0.1544E-01
  3344.71    0.1567E-01
  3348.26    0.1594E-01
  3351.81    0.1624E-01
  3355.36    0.1660E-01
  3358.92    0.1700E-01
  3362.47    0.1747E-01
  3366.02    0.1802E-01
  3369.57    0.1867E-01
  3373.12    0.1942E-01
  3376.67    0.2032E-01
  3380.22    0.2139E-01
  3383.77    0.2267E-01
  3387.32    0.2422E-01
  3390.87    0.2613E-01
  3394.42    0.2851E-01
  3397.97    0.3150E-01
  3401.52    0.3534E-01
  3405.08    0.4037E-01
  3408.63    0.4710E-01
  3412.18    0.5635E-01
  3415.73    0.6937E-01
  3419.28    0.8802E-01
  3422.83    0.1144    
  3426.38    0.1495    
  3429.93    0.1948    
  3433.48    0.2561    
  3437.03    0.3294    
  3440.58    0.3713    
  3444.13    0.3365    
  3447.69    0.2572    
  3451.24    0.1848    
  3454.79    0.1337    
  3458.34    0.9979E-01
  3461.89    0.7719E-01
  3465.44    0.6174E-01
  3468.99    0.5085E-01
  3472.54    0.4293E-01
  3476.09    0.3703E-01
  3479.64    0.3252E-01
  3483.19    0.2901E-01
  3486.74    0.2621E-01
  3490.29    0.2395E-01
  3493.85    0.2210E-01
  3497.40    0.2057E-01
  3500.95    0.1928E-01
  3504.50    0.1818E-01
