
 ------------------------------------------------------------
     normal          Raman Scattering Plot
 ------------------------------------------------------------
 Excitation wavelength  514.50 nm
 Convolution lineshape is lorentzian  
 FWHM   20.00  1/cm
 ------------------------------------------------------------
 ------------------------------------------------------------
 # of frequencies :    96
 ------------------------------------------------------------
 #  freq [ 1/cm]  S [Ang**4/amu]
 ------------------------------------------------------------
   1    12.12 66606471.3959
   2    12.58707990330.9166
   3    20.97**************
   4    31.78**************
   5    32.07**************
   6    44.88**************
   7    45.59**************
   8    62.52323856176.8442
   9    62.57 77119547.5903
  10    82.54964630335.8767
  11    83.77**************
  12   105.53 50464340.5377
  13   105.53 73569202.9217
  14   121.86**************
  15   128.60512002924.8711
  16   131.07**************
  17   158.71114338987.4911
  18   158.87**************
  19   188.33  2766667.4981
  20   188.51**************
  21   219.46427916933.6164
  22   219.50852739634.5356
  23   244.92165456107.7456
  24   250.50572224995.5826
  25   251.37891104582.8642
  26   283.43722957484.0030
  27   283.56 96118448.2107
  28   315.07**************
  29   315.44 53200297.3870
  30   343.63**************
  31   343.69 29312378.2961
  32   365.79 62763287.8965
  33   390.87792553432.9446
  34   391.05267367394.2735
  35   419.56923182348.8761
  36   419.61 59571917.9587
  37   446.99438863189.5821
  38   447.21**************
  39   474.01866312873.5775
  40   474.06**************
  41   485.44  4111868.0572
  42   500.52**************
  43   500.73241166383.0585
  44   527.54**************
  45   527.57318948851.3401
  46   554.45**************
  47   554.72237070883.7002
  48   581.79**************
  49   581.83**************
  50   605.44 63994102.2471
  51   607.09 44160829.9551
  52   608.01596317945.1172
  53   631.25**************
  54   631.41**************
  55   648.78**************
  56   651.18**************
  57   668.05**************
  58   668.19**************
  59   684.48**************
  60   685.57**************
  61   707.04**************
  62   707.12775749051.3684
  63   722.12198045514.7459
  64   736.12**************
  65   736.26**************
  66   773.09  2103006.1163
  67   773.19212550663.5739
  68   816.52**************
  69   816.63729174972.8665
  70   837.20 60531182.3836
  71   949.71153752824.2162
  72  1058.80 23123454.6613
  73  1164.48106491348.9422
  74  1265.91 88132544.6515
  75  1362.31  5848962.1063
  76  1452.43 20934584.0633
  77  1534.55 41865998.3347
  78  1605.90 10109656.1510
  79  1727.06593599373.3333
  80  1909.68 43461876.4911
  81  1916.46 14063676.3793
  82  1954.50 41009843.4174
  83  1989.81 25825200.7051
  84  2020.95 68471551.9458
  85  2028.97108942074.7588
  86  2062.23589446420.3963
  87  2097.56798685412.0092
  88  2098.15**************
  89  2128.58**************
  90  2140.76521795775.0511
  91  2151.79904565903.0160
  92  2160.84**************
  93  2172.88128505152.0469
  94  2175.04631336864.6141
  95  3426.61**************
  96  3427.81185118563.6232
 ------------------------------------------------------------
   -44.35    0.2172E+09
   -40.81    0.2418E+09
   -37.27    0.2708E+09
   -33.73    0.3056E+09
   -30.19    0.3476E+09
   -26.65    0.3992E+09
   -23.11    0.4635E+09
   -19.57    0.5450E+09
   -16.03    0.6505E+09
   -12.49    0.7904E+09
    -8.95    0.9808E+09
    -5.41    0.1248E+10
    -1.87    0.1633E+10
     1.66    0.2200E+10
     5.20    0.3015E+10
     8.74    0.4051E+10
    12.28    0.5001E+10
    15.82    0.5531E+10
    19.36    0.5710E+10
    22.90    0.5554E+10
    26.44    0.5218E+10
    29.98    0.4973E+10
    33.52    0.4699E+10
    37.06    0.4387E+10
    40.60    0.4257E+10
    44.14    0.4157E+10
    47.67    0.3670E+10
    51.21    0.2880E+10
    54.75    0.2162E+10
    58.29    0.1650E+10
    61.83    0.1306E+10
    65.37    0.1069E+10
    68.91    0.9069E+09
    72.45    0.8105E+09
    75.99    0.7719E+09
    79.53    0.7713E+09
    83.07    0.7560E+09
    86.61    0.6761E+09
    90.15    0.5599E+09
    93.68    0.4576E+09
    97.22    0.3834E+09
   100.76    0.3328E+09
   104.30    0.2989E+09
   107.84    0.2767E+09
   111.38    0.2653E+09
   114.92    0.2658E+09
   118.46    0.2779E+09
   122.00    0.2965E+09
   125.54    0.3149E+09
   129.08    0.3244E+09
   132.62    0.3069E+09
   136.16    0.2647E+09
   139.70    0.2227E+09
   143.23    0.1940E+09
   146.77    0.1797E+09
   150.31    0.1782E+09
   153.85    0.1867E+09
   157.39    0.1944E+09
   160.93    0.1850E+09
   164.47    0.1600E+09
   168.01    0.1349E+09
   171.55    0.1169E+09
   175.09    0.1064E+09
   178.63    0.1021E+09
   182.17    0.1030E+09
   185.71    0.1061E+09
   189.24    0.1044E+09
   192.78    0.9437E+08
   196.32    0.8205E+08
   199.86    0.7232E+08
   203.40    0.6600E+08
   206.94    0.6269E+08
   210.48    0.6208E+08
   214.02    0.6371E+08
   217.56    0.6555E+08
   221.10    0.6381E+08
   224.64    0.5816E+08
   228.18    0.5222E+08
   231.72    0.4809E+08
   235.25    0.4602E+08
   238.79    0.4594E+08
   242.33    0.4771E+08
   245.87    0.5064E+08
   249.41    0.5262E+08
   252.95    0.5067E+08
   256.49    0.4524E+08
   260.03    0.3966E+08
   263.57    0.3557E+08
   267.11    0.3299E+08
   270.65    0.3168E+08
   274.19    0.3149E+08
   277.73    0.3226E+08
   281.26    0.3320E+08
   284.80    0.3269E+08
   288.34    0.3043E+08
   291.88    0.2795E+08
   295.42    0.2622E+08
   298.96    0.2539E+08
   302.50    0.2547E+08
   306.04    0.2650E+08
   309.58    0.2842E+08
   313.12    0.3029E+08
   316.66    0.3020E+08
   320.20    0.2801E+08
   323.74    0.2564E+08
   327.27    0.2427E+08
   330.81    0.2413E+08
   334.35    0.2527E+08
   337.89    0.2758E+08
   341.43    0.2991E+08
   344.97    0.2982E+08
   348.51    0.2682E+08
   352.05    0.2321E+08
   355.59    0.2043E+08
   359.13    0.1859E+08
   362.67    0.1744E+08
   366.21    0.1670E+08
   369.75    0.1622E+08
   373.28    0.1604E+08
   376.82    0.1624E+08
   380.36    0.1695E+08
   383.90    0.1823E+08
   387.44    0.1981E+08
   390.98    0.2059E+08
   394.52    0.1973E+08
   398.06    0.1816E+08
   401.60    0.1699E+08
   405.14    0.1653E+08
   408.68    0.1680E+08
   412.22    0.1779E+08
   415.76    0.1926E+08
   419.29    0.2035E+08
   422.83    0.2028E+08
   426.37    0.1979E+08
   429.91    0.2001E+08
   433.45    0.2149E+08
   436.99    0.2458E+08
   440.53    0.2946E+08
   444.07    0.3496E+08
   447.61    0.3733E+08
   451.15    0.3433E+08
   454.69    0.2935E+08
   458.23    0.2573E+08
   461.77    0.2430E+08
   465.30    0.2497E+08
   468.84    0.2731E+08
   472.38    0.2960E+08
   475.92    0.2900E+08
   479.46    0.2556E+08
   483.00    0.2200E+08
   486.54    0.1971E+08
   490.08    0.1878E+08
   493.62    0.1903E+08
   497.16    0.1996E+08
   500.70    0.2046E+08
   504.24    0.1971E+08
   507.78    0.1861E+08
   511.32    0.1822E+08
   514.85    0.1895E+08
   518.39    0.2099E+08
   521.93    0.2425E+08
   525.47    0.2743E+08
   529.01    0.2785E+08
   532.55    0.2515E+08
   536.09    0.2198E+08
   539.63    0.1996E+08
   543.17    0.1930E+08
   546.71    0.1986E+08
   550.25    0.2130E+08
   553.79    0.2260E+08
   557.33    0.2265E+08
   560.86    0.2209E+08
   564.40    0.2227E+08
   567.94    0.2389E+08
   571.48    0.2734E+08
   575.02    0.3279E+08
   578.56    0.3906E+08
   582.10    0.4204E+08
   585.64    0.3902E+08
   589.18    0.3351E+08
   592.72    0.2918E+08
   596.26    0.2683E+08
   599.80    0.2616E+08
   603.34    0.2675E+08
   606.87    0.2809E+08
   610.41    0.2976E+08
   613.95    0.3204E+08
   617.49    0.3568E+08
   621.03    0.4135E+08
   624.57    0.4953E+08
   628.11    0.5992E+08
   631.65    0.7050E+08
   635.19    0.8077E+08
   638.73    0.9531E+08
   642.27    0.1192E+09
   645.81    0.1528E+09
   649.35    0.1844E+09
   652.88    0.1917E+09
   656.42    0.1757E+09
   659.96    0.1607E+09
   663.50    0.1593E+09
   667.04    0.1696E+09
   670.58    0.1863E+09
   674.12    0.2146E+09
   677.66    0.2648E+09
   681.20    0.3310E+09
   684.74    0.3710E+09
   688.28    0.3394E+09
   691.82    0.2638E+09
   695.36    0.1939E+09
   698.89    0.1452E+09
   702.43    0.1143E+09
   705.97    0.9470E+08
   709.51    0.8119E+08
   713.05    0.7196E+08
   716.59    0.6741E+08
   720.13    0.6800E+08
   723.67    0.7445E+08
   727.21    0.8805E+08
   730.75    0.1085E+09
   734.29    0.1270E+09
   737.83    0.1257E+09
   741.37    0.1035E+09
   744.90    0.7773E+08
   748.44    0.5789E+08
   751.98    0.4432E+08
   755.52    0.3515E+08
   759.06    0.2883E+08
   762.60    0.2435E+08
   766.14    0.2111E+08
   769.68    0.1870E+08
   773.22    0.1680E+08
   776.76    0.1517E+08
   780.30    0.1379E+08
   783.84    0.1268E+08
   787.38    0.1183E+08
   790.91    0.1120E+08
   794.45    0.1080E+08
   797.99    0.1064E+08
   801.53    0.1079E+08
   805.07    0.1136E+08
   808.61    0.1247E+08
   812.15    0.1399E+08
   815.69    0.1496E+08
   819.23    0.1416E+08
   822.77    0.1211E+08
   826.31    0.1012E+08
   829.85    0.8644E+07
   833.39    0.7621E+07
   836.92    0.6884E+07
   840.46    0.6305E+07
   844.00    0.5833E+07
   847.54    0.5450E+07
   851.08    0.5138E+07
   854.62    0.4877E+07
   858.16    0.4654E+07
   861.70    0.4461E+07
   865.24    0.4290E+07
   868.78    0.4136E+07
   872.32    0.3997E+07
   875.86    0.3870E+07
   879.40    0.3754E+07
   882.94    0.3646E+07
   886.47    0.3546E+07
   890.01    0.3453E+07
   893.55    0.3366E+07
   897.09    0.3284E+07
   900.63    0.3208E+07
   904.17    0.3136E+07
   907.71    0.3069E+07
   911.25    0.3005E+07
   914.79    0.2946E+07
   918.33    0.2892E+07
   921.87    0.2842E+07
   925.41    0.2797E+07
   928.95    0.2760E+07
   932.48    0.2732E+07
   936.02    0.2718E+07
   939.56    0.2722E+07
   943.10    0.2750E+07
   946.64    0.2784E+07
   950.18    0.2772E+07
   953.72    0.2684E+07
   957.26    0.2565E+07
   960.80    0.2461E+07
   964.34    0.2379E+07
   967.88    0.2313E+07
   971.42    0.2259E+07
   974.96    0.2212E+07
   978.49    0.2170E+07
   982.03    0.2132E+07
   985.57    0.2097E+07
   989.11    0.2064E+07
   992.65    0.2033E+07
   996.19    0.2003E+07
   999.73    0.1974E+07
  1003.27    0.1947E+07
  1006.81    0.1920E+07
  1010.35    0.1895E+07
  1013.89    0.1870E+07
  1017.43    0.1847E+07
  1020.97    0.1824E+07
  1024.50    0.1801E+07
  1028.04    0.1780E+07
  1031.58    0.1759E+07
  1035.12    0.1740E+07
  1038.66    0.1722E+07
  1042.20    0.1705E+07
  1045.74    0.1690E+07
  1049.28    0.1678E+07
  1052.82    0.1670E+07
  1056.36    0.1661E+07
  1059.90    0.1645E+07
  1063.44    0.1620E+07
  1066.98    0.1593E+07
  1070.51    0.1568E+07
  1074.05    0.1546E+07
  1077.59    0.1527E+07
  1081.13    0.1509E+07
  1084.67    0.1492E+07
  1088.21    0.1476E+07
  1091.75    0.1461E+07
  1095.29    0.1446E+07
  1098.83    0.1431E+07
  1102.37    0.1418E+07
  1105.91    0.1404E+07
  1109.45    0.1391E+07
  1112.99    0.1378E+07
  1116.52    0.1366E+07
  1120.06    0.1355E+07
  1123.60    0.1344E+07
  1127.14    0.1333E+07
  1130.68    0.1324E+07
  1134.22    0.1315E+07
  1137.76    0.1308E+07
  1141.30    0.1303E+07
  1144.84    0.1301E+07
  1148.38    0.1304E+07
  1151.92    0.1314E+07
  1155.46    0.1334E+07
  1159.00    0.1365E+07
  1162.53    0.1391E+07
  1166.07    0.1383E+07
  1169.61    0.1338E+07
  1173.15    0.1287E+07
  1176.69    0.1245E+07
  1180.23    0.1213E+07
  1183.77    0.1190E+07
  1187.31    0.1171E+07
  1190.85    0.1155E+07
  1194.39    0.1141E+07
  1197.93    0.1129E+07
  1201.47    0.1118E+07
  1205.01    0.1108E+07
  1208.55    0.1098E+07
  1212.08    0.1089E+07
  1215.62    0.1080E+07
  1219.16    0.1071E+07
  1222.70    0.1064E+07
  1226.24    0.1056E+07
  1229.78    0.1049E+07
  1233.32    0.1043E+07
  1236.86    0.1038E+07
  1240.40    0.1034E+07
  1243.94    0.1032E+07
  1247.48    0.1032E+07
  1251.02    0.1036E+07
  1254.56    0.1047E+07
  1258.09    0.1065E+07
  1261.63    0.1090E+07
  1265.17    0.1104E+07
  1268.71    0.1087E+07
  1272.25    0.1050E+07
  1275.79    0.1014E+07
  1279.33    0.9863E+06
  1282.87    0.9657E+06
  1286.41    0.9499E+06
  1289.95    0.9371E+06
  1293.49    0.9263E+06
  1297.03    0.9169E+06
  1300.57    0.9083E+06
  1304.10    0.9004E+06
  1307.64    0.8930E+06
  1311.18    0.8860E+06
  1314.72    0.8792E+06
  1318.26    0.8727E+06
  1321.80    0.8664E+06
  1325.34    0.8603E+06
  1328.88    0.8544E+06
  1332.42    0.8487E+06
  1335.96    0.8431E+06
  1339.50    0.8377E+06
  1343.04    0.8325E+06
  1346.58    0.8277E+06
  1350.11    0.8232E+06
  1353.65    0.8193E+06
  1357.19    0.8159E+06
  1360.73    0.8123E+06
  1364.27    0.8071E+06
  1367.81    0.8004E+06
  1371.35    0.7935E+06
  1374.89    0.7872E+06
  1378.43    0.7815E+06
  1381.97    0.7761E+06
  1385.51    0.7709E+06
  1389.05    0.7660E+06
  1392.59    0.7612E+06
  1396.12    0.7565E+06
  1399.66    0.7520E+06
  1403.20    0.7475E+06
  1406.74    0.7432E+06
  1410.28    0.7389E+06
  1413.82    0.7348E+06
  1417.36    0.7308E+06
  1420.90    0.7270E+06
  1424.44    0.7233E+06
  1427.98    0.7200E+06
  1431.52    0.7171E+06
  1435.06    0.7147E+06
  1438.60    0.7133E+06
  1442.13    0.7133E+06
  1445.67    0.7150E+06
  1449.21    0.7173E+06
  1452.75    0.7161E+06
  1456.29    0.7086E+06
  1459.83    0.6986E+06
  1463.37    0.6896E+06
  1466.91    0.6822E+06
  1470.45    0.6762E+06
  1473.99    0.6710E+06
  1477.53    0.6664E+06
  1481.07    0.6622E+06
  1484.61    0.6584E+06
  1488.14    0.6547E+06
  1491.68    0.6513E+06
  1495.22    0.6480E+06
  1498.76    0.6450E+06
  1502.30    0.6423E+06
  1505.84    0.6398E+06
  1509.38    0.6379E+06
  1512.92    0.6366E+06
  1516.46    0.6363E+06
  1520.00    0.6375E+06
  1523.54    0.6411E+06
  1527.08    0.6478E+06
  1530.62    0.6564E+06
  1534.15    0.6602E+06
  1537.69    0.6525E+06
  1541.23    0.6381E+06
  1544.77    0.6245E+06
  1548.31    0.6141E+06
  1551.85    0.6063E+06
  1555.39    0.6001E+06
  1558.93    0.5951E+06
  1562.47    0.5907E+06
  1566.01    0.5869E+06
  1569.55    0.5834E+06
  1573.09    0.5802E+06
  1576.63    0.5772E+06
  1580.17    0.5744E+06
  1583.70    0.5719E+06
  1587.24    0.5697E+06
  1590.78    0.5679E+06
  1594.32    0.5666E+06
  1597.86    0.5661E+06
  1601.40    0.5662E+06
  1604.94    0.5656E+06
  1608.48    0.5625E+06
  1612.02    0.5577E+06
  1615.56    0.5529E+06
  1619.10    0.5488E+06
  1622.64    0.5454E+06
  1626.18    0.5425E+06
  1629.71    0.5399E+06
  1633.25    0.5375E+06
  1636.79    0.5353E+06
  1640.33    0.5333E+06
  1643.87    0.5315E+06
  1647.41    0.5298E+06
  1650.95    0.5283E+06
  1654.49    0.5269E+06
  1658.03    0.5258E+06
  1661.57    0.5249E+06
  1665.11    0.5242E+06
  1668.65    0.5239E+06
  1672.19    0.5239E+06
  1675.72    0.5245E+06
  1679.26    0.5257E+06
  1682.80    0.5277E+06
  1686.34    0.5308E+06
  1689.88    0.5354E+06
  1693.42    0.5419E+06
  1696.96    0.5513E+06
  1700.50    0.5648E+06
  1704.04    0.5845E+06
  1707.58    0.6138E+06
  1711.12    0.6582E+06
  1714.66    0.7263E+06
  1718.20    0.8287E+06
  1721.73    0.9645E+06
  1725.27    0.1082E+07
  1728.81    0.1081E+07
  1732.35    0.9606E+06
  1735.89    0.8209E+06
  1739.43    0.7143E+06
  1742.97    0.6422E+06
  1746.51    0.5938E+06
  1750.05    0.5607E+06
  1753.59    0.5372E+06
  1757.13    0.5199E+06
  1760.67    0.5068E+06
  1764.21    0.4965E+06
  1767.74    0.4883E+06
  1771.28    0.4815E+06
  1774.82    0.4757E+06
  1778.36    0.4708E+06
  1781.90    0.4666E+06
  1785.44    0.4628E+06
  1788.98    0.4594E+06
  1792.52    0.4563E+06
  1796.06    0.4536E+06
  1799.60    0.4510E+06
  1803.14    0.4486E+06
  1806.68    0.4464E+06
  1810.22    0.4444E+06
  1813.75    0.4424E+06
  1817.29    0.4406E+06
  1820.83    0.4389E+06
  1824.37    0.4373E+06
  1827.91    0.4357E+06
  1831.45    0.4343E+06
  1834.99    0.4329E+06
  1838.53    0.4317E+06
  1842.07    0.4305E+06
  1845.61    0.4294E+06
  1849.15    0.4283E+06
  1852.69    0.4274E+06
  1856.23    0.4266E+06
  1859.76    0.4258E+06
  1863.30    0.4252E+06
  1866.84    0.4247E+06
  1870.38    0.4243E+06
  1873.92    0.4242E+06
  1877.46    0.4243E+06
  1881.00    0.4247E+06
  1884.54    0.4255E+06
  1888.08    0.4270E+06
  1891.62    0.4293E+06
  1895.16    0.4331E+06
  1898.70    0.4390E+06
  1902.24    0.4477E+06
  1905.77    0.4585E+06
  1909.31    0.4665E+06
  1912.85    0.4661E+06
  1916.39    0.4594E+06
  1919.93    0.4508E+06
  1923.47    0.4433E+06
  1927.01    0.4383E+06
  1930.55    0.4359E+06
  1934.09    0.4355E+06
  1937.63    0.4370E+06
  1941.17    0.4404E+06
  1944.71    0.4463E+06
  1948.25    0.4548E+06
  1951.79    0.4639E+06
  1955.32    0.4679E+06
  1958.86    0.4646E+06
  1962.40    0.4591E+06
  1965.94    0.4558E+06
  1969.48    0.4552E+06
  1973.02    0.4572E+06
  1976.56    0.4614E+06
  1980.10    0.4679E+06
  1983.64    0.4769E+06
  1987.18    0.4869E+06
  1990.72    0.4947E+06
  1994.26    0.4991E+06
  1997.80    0.5037E+06
  2001.33    0.5116E+06
  2004.87    0.5239E+06
  2008.41    0.5416E+06
  2011.95    0.5662E+06
  2015.49    0.5989E+06
  2019.03    0.6368E+06
  2022.57    0.6717E+06
  2026.11    0.6990E+06
  2029.65    0.7146E+06
  2033.19    0.7179E+06
  2036.73    0.7232E+06
  2040.27    0.7427E+06
  2043.81    0.7809E+06
  2047.34    0.8416E+06
  2050.88    0.9316E+06
  2054.42    0.1058E+07
  2057.96    0.1214E+07
  2061.50    0.1345E+07
  2065.04    0.1387E+07
  2068.58    0.1377E+07
  2072.12    0.1400E+07
  2075.66    0.1490E+07
  2079.20    0.1664E+07
  2082.74    0.1945E+07
  2086.28    0.2373E+07
  2089.82    0.2997E+07
  2093.35    0.3794E+07
  2096.89    0.4481E+07
  2100.43    0.4650E+07
  2103.97    0.4465E+07
  2107.51    0.4432E+07
  2111.05    0.4822E+07
  2114.59    0.5774E+07
  2118.13    0.7455E+07
  2121.67    0.9986E+07
  2125.21    0.1288E+08
  2128.75    0.1427E+08
  2132.29    0.1283E+08
  2135.83    0.1013E+08
  2139.36    0.7877E+07
  2142.90    0.6429E+07
  2146.44    0.5659E+07
  2149.98    0.5429E+07
  2153.52    0.5563E+07
  2157.06    0.5874E+07
  2160.60    0.5927E+07
  2164.14    0.5292E+07
  2167.68    0.4326E+07
  2171.22    0.3515E+07
  2174.76    0.2904E+07
  2178.30    0.2379E+07
  2181.84    0.1930E+07
  2185.37    0.1587E+07
  2188.91    0.1337E+07
  2192.45    0.1154E+07
  2195.99    0.1017E+07
  2199.53    0.9115E+06
  2203.07    0.8281E+06
  2206.61    0.7608E+06
  2210.15    0.7055E+06
  2213.69    0.6592E+06
  2217.23    0.6201E+06
  2220.77    0.5867E+06
  2224.31    0.5577E+06
  2227.85    0.5325E+06
  2231.38    0.5103E+06
  2234.92    0.4906E+06
  2238.46    0.4731E+06
  2242.00    0.4575E+06
  2245.54    0.4433E+06
  2249.08    0.4305E+06
  2252.62    0.4189E+06
  2256.16    0.4083E+06
  2259.70    0.3986E+06
  2263.24    0.3896E+06
  2266.78    0.3814E+06
  2270.32    0.3737E+06
  2273.86    0.3666E+06
  2277.40    0.3600E+06
  2280.93    0.3539E+06
  2284.47    0.3481E+06
  2288.01    0.3427E+06
  2291.55    0.3376E+06
  2295.09    0.3328E+06
  2298.63    0.3283E+06
  2302.17    0.3241E+06
  2305.71    0.3200E+06
  2309.25    0.3162E+06
  2312.79    0.3125E+06
  2316.33    0.3090E+06
  2319.87    0.3057E+06
  2323.41    0.3025E+06
  2326.94    0.2995E+06
  2330.48    0.2966E+06
  2334.02    0.2938E+06
  2337.56    0.2912E+06
  2341.10    0.2886E+06
  2344.64    0.2861E+06
  2348.18    0.2837E+06
  2351.72    0.2814E+06
  2355.26    0.2792E+06
  2358.80    0.2771E+06
  2362.34    0.2750E+06
  2365.88    0.2730E+06
  2369.42    0.2710E+06
  2372.95    0.2691E+06
  2376.49    0.2673E+06
  2380.03    0.2655E+06
  2383.57    0.2638E+06
  2387.11    0.2621E+06
  2390.65    0.2605E+06
  2394.19    0.2589E+06
  2397.73    0.2573E+06
  2401.27    0.2558E+06
  2404.81    0.2543E+06
  2408.35    0.2528E+06
  2411.89    0.2514E+06
  2415.43    0.2500E+06
  2418.96    0.2487E+06
  2422.50    0.2473E+06
  2426.04    0.2460E+06
  2429.58    0.2447E+06
  2433.12    0.2435E+06
  2436.66    0.2423E+06
  2440.20    0.2411E+06
  2443.74    0.2399E+06
  2447.28    0.2387E+06
  2450.82    0.2376E+06
  2454.36    0.2364E+06
  2457.90    0.2353E+06
  2461.44    0.2342E+06
  2464.97    0.2332E+06
  2468.51    0.2321E+06
  2472.05    0.2311E+06
  2475.59    0.2301E+06
  2479.13    0.2291E+06
  2482.67    0.2281E+06
  2486.21    0.2271E+06
  2489.75    0.2261E+06
  2493.29    0.2252E+06
  2496.83    0.2242E+06
  2500.37    0.2233E+06
  2503.91    0.2224E+06
  2507.45    0.2215E+06
  2510.98    0.2206E+06
  2514.52    0.2197E+06
  2518.06    0.2189E+06
  2521.60    0.2180E+06
  2525.14    0.2172E+06
  2528.68    0.2163E+06
  2532.22    0.2155E+06
  2535.76    0.2147E+06
  2539.30    0.2139E+06
  2542.84    0.2131E+06
  2546.38    0.2123E+06
  2549.92    0.2115E+06
  2553.46    0.2107E+06
  2556.99    0.2099E+06
  2560.53    0.2092E+06
  2564.07    0.2084E+06
  2567.61    0.2077E+06
  2571.15    0.2069E+06
  2574.69    0.2062E+06
  2578.23    0.2055E+06
  2581.77    0.2048E+06
  2585.31    0.2040E+06
  2588.85    0.2033E+06
  2592.39    0.2026E+06
  2595.93    0.2020E+06
  2599.47    0.2013E+06
  2603.00    0.2006E+06
  2606.54    0.1999E+06
  2610.08    0.1992E+06
  2613.62    0.1986E+06
  2617.16    0.1979E+06
  2620.70    0.1973E+06
  2624.24    0.1966E+06
  2627.78    0.1960E+06
  2631.32    0.1953E+06
  2634.86    0.1947E+06
  2638.40    0.1941E+06
  2641.94    0.1935E+06
  2645.48    0.1929E+06
  2649.02    0.1922E+06
  2652.55    0.1916E+06
  2656.09    0.1910E+06
  2659.63    0.1904E+06
  2663.17    0.1898E+06
  2666.71    0.1893E+06
  2670.25    0.1887E+06
  2673.79    0.1881E+06
  2677.33    0.1875E+06
  2680.87    0.1870E+06
  2684.41    0.1864E+06
  2687.95    0.1858E+06
  2691.49    0.1853E+06
  2695.03    0.1847E+06
  2698.56    0.1842E+06
  2702.10    0.1836E+06
  2705.64    0.1831E+06
  2709.18    0.1825E+06
  2712.72    0.1820E+06
  2716.26    0.1815E+06
  2719.80    0.1809E+06
  2723.34    0.1804E+06
  2726.88    0.1799E+06
  2730.42    0.1794E+06
  2733.96    0.1789E+06
  2737.50    0.1783E+06
  2741.04    0.1778E+06
  2744.57    0.1773E+06
  2748.11    0.1768E+06
  2751.65    0.1763E+06
  2755.19    0.1758E+06
  2758.73    0.1754E+06
  2762.27    0.1749E+06
  2765.81    0.1744E+06
  2769.35    0.1739E+06
  2772.89    0.1734E+06
  2776.43    0.1730E+06
  2779.97    0.1725E+06
  2783.51    0.1720E+06
  2787.05    0.1716E+06
  2790.58    0.1711E+06
  2794.12    0.1706E+06
  2797.66    0.1702E+06
  2801.20    0.1697E+06
  2804.74    0.1693E+06
  2808.28    0.1688E+06
  2811.82    0.1684E+06
  2815.36    0.1680E+06
  2818.90    0.1675E+06
  2822.44    0.1671E+06
  2825.98    0.1667E+06
  2829.52    0.1662E+06
  2833.06    0.1658E+06
  2836.59    0.1654E+06
  2840.13    0.1650E+06
  2843.67    0.1645E+06
  2847.21    0.1641E+06
  2850.75    0.1637E+06
  2854.29    0.1633E+06
  2857.83    0.1629E+06
  2861.37    0.1625E+06
  2864.91    0.1621E+06
  2868.45    0.1617E+06
  2871.99    0.1613E+06
  2875.53    0.1609E+06
  2879.07    0.1606E+06
  2882.60    0.1602E+06
  2886.14    0.1598E+06
  2889.68    0.1594E+06
  2893.22    0.1590E+06
  2896.76    0.1587E+06
  2900.30    0.1583E+06
  2903.84    0.1579E+06
  2907.38    0.1576E+06
  2910.92    0.1572E+06
  2914.46    0.1569E+06
  2918.00    0.1565E+06
  2921.54    0.1561E+06
  2925.08    0.1558E+06
  2928.61    0.1555E+06
  2932.15    0.1551E+06
  2935.69    0.1548E+06
  2939.23    0.1544E+06
  2942.77    0.1541E+06
  2946.31    0.1538E+06
  2949.85    0.1535E+06
  2953.39    0.1531E+06
  2956.93    0.1528E+06
  2960.47    0.1525E+06
  2964.01    0.1522E+06
  2967.55    0.1519E+06
  2971.09    0.1516E+06
  2974.63    0.1513E+06
  2978.16    0.1510E+06
  2981.70    0.1507E+06
  2985.24    0.1504E+06
  2988.78    0.1501E+06
  2992.32    0.1498E+06
  2995.86    0.1495E+06
  2999.40    0.1493E+06
  3002.94    0.1490E+06
  3006.48    0.1487E+06
  3010.02    0.1484E+06
  3013.56    0.1482E+06
  3017.10    0.1479E+06
  3020.64    0.1477E+06
  3024.17    0.1474E+06
  3027.71    0.1472E+06
  3031.25    0.1470E+06
  3034.79    0.1467E+06
  3038.33    0.1465E+06
  3041.87    0.1463E+06
  3045.41    0.1461E+06
  3048.95    0.1458E+06
  3052.49    0.1456E+06
  3056.03    0.1454E+06
  3059.57    0.1452E+06
  3063.11    0.1450E+06
  3066.65    0.1449E+06
  3070.18    0.1447E+06
  3073.72    0.1445E+06
  3077.26    0.1443E+06
  3080.80    0.1442E+06
  3084.34    0.1440E+06
  3087.88    0.1439E+06
  3091.42    0.1437E+06
  3094.96    0.1436E+06
  3098.50    0.1435E+06
  3102.04    0.1434E+06
  3105.58    0.1433E+06
  3109.12    0.1432E+06
  3112.66    0.1431E+06
  3116.19    0.1430E+06
  3119.73    0.1429E+06
  3123.27    0.1429E+06
  3126.81    0.1428E+06
  3130.35    0.1428E+06
  3133.89    0.1427E+06
  3137.43    0.1427E+06
  3140.97    0.1427E+06
  3144.51    0.1427E+06
  3148.05    0.1428E+06
  3151.59    0.1428E+06
  3155.13    0.1429E+06
  3158.67    0.1429E+06
  3162.20    0.1430E+06
  3165.74    0.1431E+06
  3169.28    0.1432E+06
  3172.82    0.1434E+06
  3176.36    0.1435E+06
  3179.90    0.1437E+06
  3183.44    0.1439E+06
  3186.98    0.1441E+06
  3190.52    0.1444E+06
  3194.06    0.1447E+06
  3197.60    0.1450E+06
  3201.14    0.1453E+06
  3204.68    0.1457E+06
  3208.21    0.1461E+06
  3211.75    0.1465E+06
  3215.29    0.1470E+06
  3218.83    0.1475E+06
  3222.37    0.1480E+06
  3225.91    0.1487E+06
  3229.45    0.1493E+06
  3232.99    0.1500E+06
  3236.53    0.1508E+06
  3240.07    0.1516E+06
  3243.61    0.1525E+06
  3247.15    0.1534E+06
  3250.69    0.1545E+06
  3254.22    0.1556E+06
  3257.76    0.1568E+06
  3261.30    0.1581E+06
  3264.84    0.1595E+06
  3268.38    0.1610E+06
  3271.92    0.1627E+06
  3275.46    0.1645E+06
  3279.00    0.1664E+06
  3282.54    0.1685E+06
  3286.08    0.1708E+06
  3289.62    0.1732E+06
  3293.16    0.1759E+06
  3296.70    0.1789E+06
  3300.23    0.1821E+06
  3303.77    0.1856E+06
  3307.31    0.1895E+06
  3310.85    0.1937E+06
  3314.39    0.1984E+06
  3317.93    0.2036E+06
  3321.47    0.2093E+06
  3325.01    0.2156E+06
  3328.55    0.2226E+06
  3332.09    0.2305E+06
  3335.63    0.2394E+06
  3339.17    0.2493E+06
  3342.71    0.2605E+06
  3346.25    0.2733E+06
  3349.78    0.2878E+06
  3353.32    0.3045E+06
  3356.86    0.3238E+06
  3360.40    0.3462E+06
  3363.94    0.3724E+06
  3367.48    0.4033E+06
  3371.02    0.4401E+06
  3374.56    0.4844E+06
  3378.10    0.5383E+06
  3381.64    0.6046E+06
  3385.18    0.6874E+06
  3388.72    0.7925E+06
  3392.26    0.9284E+06
  3395.79    0.1108E+07
  3399.33    0.1351E+07
  3402.87    0.1688E+07
  3406.41    0.2171E+07
  3409.95    0.2883E+07
  3413.49    0.3956E+07
  3417.03    0.5568E+07
  3420.57    0.7779E+07
  3424.11    0.9965E+07
  3427.65    0.1048E+08
  3431.19    0.8779E+07
  3434.73    0.6432E+07
  3438.27    0.4556E+07
  3441.80    0.3278E+07
  3445.34    0.2433E+07
  3448.88    0.1866E+07
  3452.42    0.1475E+07
  3455.96    0.1197E+07
  3459.50    0.9931E+06
  3463.04    0.8403E+06
  3466.58    0.7231E+06
  3470.12    0.6312E+06
  3473.66    0.5581E+06
  3477.20    0.4990E+06
  3480.74    0.4505E+06
  3484.28    0.4103E+06
  3487.81    0.3766E+06
  3491.35    0.3481E+06
