
 ------------------------------------------------------------
     normal          Raman Scattering Plot
 ------------------------------------------------------------
 Excitation wavelength  514.50 nm
 Convolution lineshape is lorentzian  
 FWHM   20.00  1/cm
 ------------------------------------------------------------
 ------------------------------------------------------------
 # of frequencies :    96
 ------------------------------------------------------------
 #  freq [ 1/cm]  S [Ang**4/amu]
 ------------------------------------------------------------
   1    24.82   201326.4707
   2    37.21262176919.6623
   3    37.70 12445891.2156
   4    52.11153365067.3420
   5    53.48  4816866.7188
   6    69.73 44004075.5948
   7    69.79 54171610.9388
   8    88.19**************
   9    88.86  3486728.9165
  10   109.62353205830.4186
  11   109.70990097810.9745
  12   114.02 58485568.1226
  13   132.93**************
  14   133.19622691444.1920
  15   158.70 39171150.6993
  16   158.88259996206.3589
  17   186.50508530913.0705
  18   186.51737969697.7860
  19   215.86  1657399.4244
  20   216.10175082613.5140
  21   236.71 10225218.5582
  22   246.67 80783644.5613
  23   246.83491848977.7276
  24   278.12253772763.3131
  25   278.43345040246.0788
  26   309.96532139935.0544
  27   310.27**************
  28   341.52133819950.9217
  29   341.95353146378.7542
  30   354.60  2671755.5236
  31   369.49 72405986.5161
  32   369.87247241168.7663
  33   414.21 30935040.7343
  34   414.40**************
  35   442.51164537329.0846
  36   442.67**************
  37   469.58569457356.9335
  38   469.78 83913321.7986
  39   470.29289182577.5826
  40   496.04 33958006.2083
  41   496.13**************
  42   522.13 77248390.5318
  43   522.20 49241954.1280
  44   548.30212521613.6244
  45   548.38**************
  46   574.62481492646.8961
  47   574.66**************
  48   582.34  4656970.9472
  49   600.37673919709.8354
  50   600.54**************
  51   623.88790326801.2524
  52   623.90241806099.9161
  53   642.54 36614972.3908
  54   643.19**************
  55   659.23349239389.4238
  56   659.25 64023336.6897
  57   677.64  1495983.6682
  58   678.17**************
  59   694.94  3053057.1184
  60   699.17226832612.5602
  61   699.22416757427.1280
  62   723.24 17408402.8863
  63   723.36300351950.6899
  64   752.82  8641050.5588
  65   752.89829235192.3966
  66   789.18   530330.0452
  67   789.25303685663.8854
  68   808.04 34026894.2107
  69   831.28 11349752.4176
  70   831.37**************
  71   920.13184324244.5576
  72  1026.70  9411492.0654
  73  1128.41399277940.2172
  74  1226.90  3216434.3611
  75  1320.75**************
  76  1407.59 19204079.8222
  77  1484.43**************
  78  1550.17476529598.4432
  79  1667.33359769366.7294
  80  1845.20 83364982.0087
  81  1874.13**************
  82  1909.83**************
  83  1942.31**************
  84  1957.47165912842.8829
  85  1976.64 77412623.0105
  86  2008.58115771190.4116
  87  2032.13178254718.9272
  88  2041.75 63959536.3008
  89  2068.99441462145.7782
  90  2073.51236209849.8634
  91  2090.04 20249461.9884
  92  2095.50485611877.3201
  93  2110.33 11016354.1659
  94  2110.88 99528394.5585
  95  3426.42 44495193.7174
  96  3437.14  4653829.4020
 ------------------------------------------------------------
   -31.64    0.6894E+07
   -28.11    0.7430E+07
   -24.57    0.8039E+07
   -21.03    0.8736E+07
   -17.50    0.9537E+07
   -13.96    0.1047E+08
   -10.43    0.1156E+08
    -6.89    0.1287E+08
    -3.36    0.1443E+08
     0.18    0.1635E+08
     3.72    0.1875E+08
     7.25    0.2179E+08
    10.79    0.2577E+08
    14.32    0.3112E+08
    17.86    0.3853E+08
    21.40    0.4913E+08
    24.93    0.6463E+08
    28.47    0.8713E+08
    32.00    0.1166E+09
    35.54    0.1433E+09
    39.07    0.1489E+09
    42.61    0.1348E+09
    46.15    0.1204E+09
    49.68    0.1132E+09
    53.22    0.1082E+09
    56.75    0.1022E+09
    60.29    0.1001E+09
    63.83    0.1057E+09
    67.36    0.1199E+09
    70.90    0.1429E+09
    74.43    0.1783E+09
    77.97    0.2345E+09
    81.50    0.3171E+09
    85.04    0.4086E+09
    88.58    0.4476E+09
    92.11    0.3963E+09
    95.65    0.3093E+09
    99.18    0.2408E+09
   102.72    0.2021E+09
   106.26    0.1847E+09
   109.79    0.1713E+09
   113.33    0.1492E+09
   116.86    0.1250E+09
   120.40    0.1086E+09
   123.94    0.1031E+09
   127.47    0.1069E+09
   131.01    0.1129E+09
   134.54    0.1079E+09
   138.08    0.8997E+08
   141.61    0.7037E+08
   145.15    0.5568E+08
   148.69    0.4623E+08
   152.22    0.4075E+08
   155.76    0.3773E+08
   159.29    0.3513E+08
   162.83    0.3178E+08
   166.37    0.2870E+08
   169.90    0.2706E+08
   173.44    0.2732E+08
   176.97    0.2974E+08
   180.51    0.3429E+08
   184.04    0.3906E+08
   187.58    0.3942E+08
   191.12    0.3395E+08
   194.65    0.2693E+08
   198.19    0.2141E+08
   201.72    0.1771E+08
   205.26    0.1544E+08
   208.80    0.1419E+08
   212.33    0.1360E+08
   215.87    0.1309E+08
   219.40    0.1216E+08
   222.94    0.1110E+08
   226.47    0.1036E+08
   230.01    0.1010E+08
   233.55    0.1037E+08
   237.08    0.1122E+08
   240.62    0.1265E+08
   244.15    0.1420E+08
   247.69    0.1456E+08
   251.23    0.1324E+08
   254.76    0.1146E+08
   258.30    0.1021E+08
   261.83    0.9655E+07
   265.37    0.9776E+07
   268.91    0.1057E+08
   272.44    0.1201E+08
   275.98    0.1358E+08
   279.51    0.1414E+08
   283.05    0.1343E+08
   286.58    0.1266E+08
   290.12    0.1271E+08
   293.66    0.1390E+08
   297.19    0.1650E+08
   300.73    0.2093E+08
   304.26    0.2729E+08
   307.80    0.3356E+08
   311.34    0.3479E+08
   314.87    0.2955E+08
   318.41    0.2259E+08
   321.94    0.1716E+08
   325.48    0.1363E+08
   329.01    0.1157E+08
   332.55    0.1058E+08
   336.09    0.1037E+08
   339.62    0.1047E+08
   343.16    0.1007E+08
   346.69    0.8978E+07
   350.23    0.7835E+07
   353.77    0.7057E+07
   357.30    0.6692E+07
   360.84    0.6702E+07
   364.37    0.7023E+07
   367.91    0.7413E+07
   371.44    0.7443E+07
   374.98    0.7089E+07
   378.52    0.6762E+07
   382.05    0.6704E+07
   385.59    0.6963E+07
   389.12    0.7564E+07
   392.66    0.8581E+07
   396.20    0.1017E+08
   399.73    0.1262E+08
   403.27    0.1636E+08
   406.80    0.2181E+08
   410.34    0.2837E+08
   413.88    0.3268E+08
   417.41    0.3104E+08
   420.95    0.2584E+08
   424.48    0.2139E+08
   428.02    0.1918E+08
   431.55    0.1926E+08
   435.09    0.2148E+08
   438.63    0.2506E+08
   442.16    0.2728E+08
   445.70    0.2533E+08
   449.23    0.2088E+08
   452.77    0.1699E+08
   456.31    0.1463E+08
   459.84    0.1369E+08
   463.38    0.1389E+08
   466.91    0.1479E+08
   470.45    0.1549E+08
   473.98    0.1563E+08
   477.52    0.1611E+08
   481.06    0.1790E+08
   484.59    0.2164E+08
   488.13    0.2781E+08
   491.66    0.3580E+08
   495.20    0.4148E+08
   498.74    0.3935E+08
   502.27    0.3152E+08
   505.81    0.2379E+08
   509.34    0.1830E+08
   512.88    0.1481E+08
   516.41    0.1271E+08
   519.95    0.1151E+08
   523.49    0.1086E+08
   527.02    0.1059E+08
   530.56    0.1079E+08
   534.09    0.1157E+08
   537.63    0.1310E+08
   541.17    0.1551E+08
   544.70    0.1847E+08
   548.24    0.2057E+08
   551.77    0.2058E+08
   555.31    0.1979E+08
   558.85    0.1995E+08
   562.38    0.2181E+08
   565.92    0.2564E+08
   569.45    0.3137E+08
   572.99    0.3740E+08
   576.52    0.4088E+08
   580.06    0.4250E+08
   583.60    0.4634E+08
   587.13    0.5548E+08
   590.67    0.7203E+08
   594.20    0.9669E+08
   597.74    0.1227E+09
   601.28    0.1306E+09
   604.81    0.1117E+09
   608.35    0.8353E+08
   611.88    0.6082E+08
   615.42    0.4576E+08
   618.95    0.3645E+08
   622.49    0.3063E+08
   626.03    0.2651E+08
   629.56    0.2355E+08
   633.10    0.2214E+08
   636.63    0.2242E+08
   640.17    0.2359E+08
   643.71    0.2357E+08
   647.24    0.2116E+08
   650.78    0.1807E+08
   654.31    0.1591E+08
   657.85    0.1486E+08
   661.38    0.1463E+08
   664.92    0.1531E+08
   668.46    0.1733E+08
   671.99    0.2086E+08
   675.53    0.2466E+08
   679.06    0.2543E+08
   682.60    0.2189E+08
   686.14    0.1709E+08
   689.67    0.1336E+08
   693.21    0.1102E+08
   696.74    0.9579E+07
   700.28    0.8391E+07
   703.82    0.7144E+07
   707.35    0.6042E+07
   710.89    0.5250E+07
   714.42    0.4761E+07
   717.96    0.4508E+07
   721.49    0.4357E+07
   725.03    0.4112E+07
   728.57    0.3750E+07
   732.10    0.3431E+07
   735.64    0.3252E+07
   739.17    0.3239E+07
   742.71    0.3412E+07
   746.25    0.3781E+07
   749.78    0.4221E+07
   753.32    0.4344E+07
   756.85    0.3917E+07
   760.39    0.3274E+07
   763.92    0.2740E+07
   767.46    0.2377E+07
   771.00    0.2152E+07
   774.53    0.2035E+07
   778.07    0.2011E+07
   781.60    0.2077E+07
   785.14    0.2205E+07
   788.68    0.2282E+07
   792.21    0.2187E+07
   795.75    0.1992E+07
   799.28    0.1833E+07
   802.82    0.1756E+07
   806.35    0.1752E+07
   809.89    0.1806E+07
   813.43    0.1932E+07
   816.96    0.2178E+07
   820.50    0.2605E+07
   824.03    0.3261E+07
   827.57    0.4043E+07
   831.11    0.4469E+07
   834.64    0.4083E+07
   838.18    0.3245E+07
   841.71    0.2482E+07
   845.25    0.1939E+07
   848.79    0.1573E+07
   852.32    0.1325E+07
   855.86    0.1150E+07
   859.39    0.1024E+07
   862.93    0.9296E+06
   866.46    0.8568E+06
   870.00    0.7993E+06
   873.54    0.7532E+06
   877.07    0.7156E+06
   880.61    0.6850E+06
   884.14    0.6603E+06
   887.68    0.6408E+06
   891.22    0.6265E+06
   894.75    0.6179E+06
   898.29    0.6164E+06
   901.82    0.6244E+06
   905.36    0.6462E+06
   908.89    0.6883E+06
   912.43    0.7572E+06
   915.97    0.8442E+06
   919.50    0.8963E+06
   923.04    0.8527E+06
   926.57    0.7469E+06
   930.11    0.6461E+06
   933.65    0.5717E+06
   937.18    0.5196E+06
   940.72    0.4825E+06
   944.25    0.4550E+06
   947.79    0.4337E+06
   951.32    0.4166E+06
   954.86    0.4023E+06
   958.40    0.3901E+06
   961.93    0.3795E+06
   965.47    0.3700E+06
   969.00    0.3614E+06
   972.54    0.3536E+06
   976.08    0.3464E+06
   979.61    0.3398E+06
   983.15    0.3336E+06
   986.68    0.3278E+06
   990.22    0.3224E+06
   993.76    0.3173E+06
   997.29    0.3126E+06
  1000.83    0.3083E+06
  1004.36    0.3045E+06
  1007.90    0.3011E+06
  1011.43    0.2985E+06
  1014.97    0.2969E+06
  1018.51    0.2966E+06
  1022.04    0.2974E+06
  1025.58    0.2972E+06
  1029.11    0.2931E+06
  1032.65    0.2859E+06
  1036.19    0.2788E+06
  1039.72    0.2730E+06
  1043.26    0.2684E+06
  1046.79    0.2647E+06
  1050.33    0.2616E+06
  1053.86    0.2590E+06
  1057.40    0.2569E+06
  1060.94    0.2552E+06
  1064.47    0.2539E+06
  1068.01    0.2530E+06
  1071.54    0.2526E+06
  1075.08    0.2529E+06
  1078.62    0.2538E+06
  1082.15    0.2556E+06
  1085.69    0.2586E+06
  1089.22    0.2630E+06
  1092.76    0.2694E+06
  1096.29    0.2786E+06
  1099.83    0.2918E+06
  1103.37    0.3108E+06
  1106.90    0.3386E+06
  1110.44    0.3801E+06
  1113.97    0.4433E+06
  1117.51    0.5399E+06
  1121.05    0.6801E+06
  1124.58    0.8444E+06
  1128.12    0.9370E+06
  1131.65    0.8653E+06
  1135.19    0.7007E+06
  1138.73    0.5503E+06
  1142.26    0.4435E+06
  1145.80    0.3722E+06
  1149.33    0.3244E+06
  1152.87    0.2913E+06
  1156.40    0.2678E+06
  1159.94    0.2504E+06
  1163.48    0.2373E+06
  1167.01    0.2271E+06
  1170.55    0.2190E+06
  1174.08    0.2124E+06
  1177.62    0.2071E+06
  1181.16    0.2026E+06
  1184.69    0.1989E+06
  1188.23    0.1958E+06
  1191.76    0.1933E+06
  1195.30    0.1911E+06
  1198.83    0.1894E+06
  1202.37    0.1880E+06
  1205.91    0.1870E+06
  1209.44    0.1864E+06
  1212.98    0.1862E+06
  1216.51    0.1866E+06
  1220.05    0.1876E+06
  1223.59    0.1890E+06
  1227.12    0.1900E+06
  1230.66    0.1902E+06
  1234.19    0.1903E+06
  1237.73    0.1909E+06
  1241.26    0.1924E+06
  1244.80    0.1946E+06
  1248.34    0.1977E+06
  1251.87    0.2016E+06
  1255.41    0.2065E+06
  1258.94    0.2126E+06
  1262.48    0.2201E+06
  1266.02    0.2294E+06
  1269.55    0.2408E+06
  1273.09    0.2550E+06
  1276.62    0.2728E+06
  1280.16    0.2955E+06
  1283.70    0.3246E+06
  1287.23    0.3628E+06
  1290.77    0.4138E+06
  1294.30    0.4835E+06
  1297.84    0.5813E+06
  1301.37    0.7227E+06
  1304.91    0.9327E+06
  1308.45    0.1251E+07
  1311.98    0.1723E+07
  1315.52    0.2343E+07
  1319.05    0.2870E+07
  1322.59    0.2856E+07
  1326.13    0.2315E+07
  1329.66    0.1697E+07
  1333.20    0.1231E+07
  1336.73    0.9170E+06
  1340.27    0.7093E+06
  1343.80    0.5690E+06
  1347.34    0.4715E+06
  1350.88    0.4017E+06
  1354.41    0.3503E+06
  1357.95    0.3116E+06
  1361.48    0.2819E+06
  1365.02    0.2586E+06
  1368.56    0.2402E+06
  1372.09    0.2255E+06
  1375.63    0.2136E+06
  1379.16    0.2042E+06
  1382.70    0.1967E+06
  1386.23    0.1910E+06
  1389.77    0.1870E+06
  1393.31    0.1848E+06
  1396.84    0.1848E+06
  1400.38    0.1872E+06
  1403.91    0.1911E+06
  1407.45    0.1929E+06
  1410.99    0.1896E+06
  1414.52    0.1837E+06
  1418.06    0.1793E+06
  1421.59    0.1773E+06
  1425.13    0.1775E+06
  1428.67    0.1796E+06
  1432.20    0.1836E+06
  1435.74    0.1896E+06
  1439.27    0.1979E+06
  1442.81    0.2090E+06
  1446.34    0.2238E+06
  1449.88    0.2435E+06
  1453.42    0.2702E+06
  1456.95    0.3067E+06
  1460.49    0.3578E+06
  1464.02    0.4314E+06
  1467.56    0.5401E+06
  1471.10    0.7042E+06
  1474.63    0.9512E+06
  1478.17    0.1294E+07
  1481.70    0.1644E+07
  1485.24    0.1747E+07
  1488.77    0.1497E+07
  1492.31    0.1129E+07
  1495.85    0.8298E+06
  1499.38    0.6259E+06
  1502.92    0.4924E+06
  1506.45    0.4045E+06
  1509.99    0.3461E+06
  1513.53    0.3074E+06
  1517.06    0.2826E+06
  1520.60    0.2688E+06
  1524.13    0.2647E+06
  1527.67    0.2709E+06
  1531.20    0.2896E+06
  1534.74    0.3256E+06
  1538.28    0.3867E+06
  1541.81    0.4821E+06
  1545.35    0.6067E+06
  1548.88    0.7028E+06
  1552.42    0.6801E+06
  1555.96    0.5580E+06
  1559.49    0.4297E+06
  1563.03    0.3345E+06
  1566.56    0.2703E+06
  1570.10    0.2273E+06
  1573.64    0.1978E+06
  1577.17    0.1770E+06
  1580.71    0.1618E+06
  1584.24    0.1504E+06
  1587.78    0.1418E+06
  1591.31    0.1351E+06
  1594.85    0.1299E+06
  1598.39    0.1259E+06
  1601.92    0.1227E+06
  1605.46    0.1204E+06
  1608.99    0.1187E+06
  1612.53    0.1177E+06
  1616.07    0.1172E+06
  1619.60    0.1175E+06
  1623.14    0.1185E+06
  1626.67    0.1203E+06
  1630.21    0.1233E+06
  1633.74    0.1276E+06
  1637.28    0.1339E+06
  1640.82    0.1430E+06
  1644.35    0.1560E+06
  1647.89    0.1753E+06
  1651.42    0.2043E+06
  1654.96    0.2485E+06
  1658.50    0.3146E+06
  1662.03    0.4019E+06
  1665.57    0.4772E+06
  1669.10    0.4768E+06
  1672.64    0.4009E+06
  1676.17    0.3132E+06
  1679.71    0.2466E+06
  1683.25    0.2019E+06
  1686.78    0.1724E+06
  1690.32    0.1526E+06
  1693.85    0.1389E+06
  1697.39    0.1292E+06
  1700.93    0.1223E+06
  1704.46    0.1172E+06
  1708.00    0.1134E+06
  1711.53    0.1106E+06
  1715.07    0.1086E+06
  1718.61    0.1072E+06
  1722.14    0.1062E+06
  1725.68    0.1057E+06
  1729.21    0.1055E+06
  1732.75    0.1056E+06
  1736.28    0.1060E+06
  1739.82    0.1066E+06
  1743.36    0.1076E+06
  1746.89    0.1087E+06
  1750.43    0.1101E+06
  1753.96    0.1118E+06
  1757.50    0.1138E+06
  1761.04    0.1161E+06
  1764.57    0.1187E+06
  1768.11    0.1216E+06
  1771.64    0.1250E+06
  1775.18    0.1288E+06
  1778.71    0.1331E+06
  1782.25    0.1380E+06
  1785.79    0.1435E+06
  1789.32    0.1498E+06
  1792.86    0.1569E+06
  1796.39    0.1651E+06
  1799.93    0.1745E+06
  1803.47    0.1854E+06
  1807.00    0.1981E+06
  1810.54    0.2130E+06
  1814.07    0.2306E+06
  1817.61    0.2517E+06
  1821.14    0.2772E+06
  1824.68    0.3085E+06
  1828.22    0.3476E+06
  1831.75    0.3974E+06
  1835.29    0.4619E+06
  1838.82    0.5457E+06
  1842.36    0.6506E+06
  1845.90    0.7732E+06
  1849.43    0.9218E+06
  1852.97    0.1130E+07
  1856.50    0.1445E+07
  1860.04    0.1926E+07
  1863.58    0.2659E+07
  1867.11    0.3708E+07
  1870.65    0.4893E+07
  1874.18    0.5483E+07
  1877.72    0.4906E+07
  1881.25    0.3766E+07
  1884.79    0.2783E+07
  1888.33    0.2131E+07
  1891.86    0.1752E+07
  1895.40    0.1580E+07
  1898.93    0.1582E+07
  1902.47    0.1744E+07
  1906.01    0.2003E+07
  1909.54    0.2138E+07
  1913.08    0.1946E+07
  1916.61    0.1575E+07
  1920.15    0.1258E+07
  1923.68    0.1061E+07
  1927.22    0.9759E+06
  1930.76    0.9912E+06
  1934.29    0.1105E+07
  1937.83    0.1291E+07
  1941.36    0.1425E+07
  1944.90    0.1347E+07
  1948.44    0.1118E+07
  1951.97    0.9042E+06
  1955.51    0.7535E+06
  1959.04    0.6354E+06
  1962.58    0.5300E+06
  1966.11    0.4477E+06
  1969.65    0.3935E+06
  1973.19    0.3604E+06
  1976.72    0.3333E+06
  1980.26    0.3009E+06
  1983.79    0.2684E+06
  1987.33    0.2438E+06
  1990.87    0.2286E+06
  1994.40    0.2224E+06
  1997.94    0.2254E+06
  2001.47    0.2378E+06
  2005.01    0.2561E+06
  2008.55    0.2669E+06
  2012.08    0.2596E+06
  2015.62    0.2461E+06
  2019.15    0.2421E+06
  2022.69    0.2538E+06
  2026.22    0.2811E+06
  2029.76    0.3141E+06
  2033.30    0.3289E+06
  2036.83    0.3189E+06
  2040.37    0.3018E+06
  2043.90    0.2858E+06
  2047.44    0.2754E+06
  2050.98    0.2800E+06
  2054.51    0.3061E+06
  2058.05    0.3597E+06
  2061.58    0.4473E+06
  2065.12    0.5621E+06
  2068.65    0.6565E+06
  2072.19    0.6671E+06
  2075.73    0.5998E+06
  2079.26    0.5165E+06
  2082.80    0.4680E+06
  2086.33    0.4698E+06
  2089.87    0.5143E+06
  2093.41    0.5646E+06
  2096.94    0.5560E+06
  2100.48    0.4800E+06
  2104.01    0.3971E+06
  2107.55    0.3387E+06
  2111.08    0.2937E+06
  2114.62    0.2462E+06
  2118.16    0.2012E+06
  2121.69    0.1661E+06
  2125.23    0.1407E+06
  2128.76    0.1226E+06
  2132.30    0.1092E+06
  2135.84    0.9905E+05
  2139.37    0.9115E+05
  2142.91    0.8483E+05
  2146.44    0.7966E+05
  2149.98    0.7537E+05
  2153.52    0.7173E+05
  2157.05    0.6862E+05
  2160.59    0.6591E+05
  2164.12    0.6354E+05
  2167.66    0.6145E+05
  2171.19    0.5958E+05
  2174.73    0.5790E+05
  2178.27    0.5638E+05
  2181.80    0.5500E+05
  2185.34    0.5373E+05
  2188.87    0.5257E+05
  2192.41    0.5150E+05
  2195.95    0.5050E+05
  2199.48    0.4957E+05
  2203.02    0.4871E+05
  2206.55    0.4790E+05
  2210.09    0.4714E+05
  2213.62    0.4642E+05
  2217.16    0.4574E+05
  2220.70    0.4510E+05
  2224.23    0.4449E+05
  2227.77    0.4391E+05
  2231.30    0.4335E+05
  2234.84    0.4283E+05
  2238.38    0.4232E+05
  2241.91    0.4184E+05
  2245.45    0.4138E+05
  2248.98    0.4093E+05
  2252.52    0.4050E+05
  2256.05    0.4009E+05
  2259.59    0.3969E+05
  2263.13    0.3931E+05
  2266.66    0.3893E+05
  2270.20    0.3858E+05
  2273.73    0.3823E+05
  2277.27    0.3789E+05
  2280.81    0.3756E+05
  2284.34    0.3725E+05
  2287.88    0.3694E+05
  2291.41    0.3664E+05
  2294.95    0.3634E+05
  2298.49    0.3606E+05
  2302.02    0.3578E+05
  2305.56    0.3551E+05
  2309.09    0.3525E+05
  2312.63    0.3499E+05
  2316.16    0.3474E+05
  2319.70    0.3449E+05
  2323.24    0.3425E+05
  2326.77    0.3402E+05
  2330.31    0.3379E+05
  2333.84    0.3356E+05
  2337.38    0.3334E+05
  2340.92    0.3312E+05
  2344.45    0.3291E+05
  2347.99    0.3270E+05
  2351.52    0.3250E+05
  2355.06    0.3230E+05
  2358.59    0.3210E+05
  2362.13    0.3191E+05
  2365.67    0.3172E+05
  2369.20    0.3153E+05
  2372.74    0.3135E+05
  2376.27    0.3116E+05
  2379.81    0.3099E+05
  2383.35    0.3081E+05
  2386.88    0.3064E+05
  2390.42    0.3047E+05
  2393.95    0.3030E+05
  2397.49    0.3014E+05
  2401.02    0.2998E+05
  2404.56    0.2982E+05
  2408.10    0.2966E+05
  2411.63    0.2950E+05
  2415.17    0.2935E+05
  2418.70    0.2920E+05
  2422.24    0.2905E+05
  2425.78    0.2890E+05
  2429.31    0.2876E+05
  2432.85    0.2861E+05
  2436.38    0.2847E+05
  2439.92    0.2833E+05
  2443.46    0.2819E+05
  2446.99    0.2806E+05
  2450.53    0.2792E+05
  2454.06    0.2779E+05
  2457.60    0.2766E+05
  2461.13    0.2753E+05
  2464.67    0.2740E+05
  2468.21    0.2727E+05
  2471.74    0.2714E+05
  2475.28    0.2702E+05
  2478.81    0.2690E+05
  2482.35    0.2678E+05
  2485.89    0.2665E+05
  2489.42    0.2654E+05
  2492.96    0.2642E+05
  2496.49    0.2630E+05
  2500.03    0.2619E+05
  2503.56    0.2607E+05
  2507.10    0.2596E+05
  2510.64    0.2585E+05
  2514.17    0.2573E+05
  2517.71    0.2562E+05
  2521.24    0.2552E+05
  2524.78    0.2541E+05
  2528.32    0.2530E+05
  2531.85    0.2519E+05
  2535.39    0.2509E+05
  2538.92    0.2499E+05
  2542.46    0.2488E+05
  2545.99    0.2478E+05
  2549.53    0.2468E+05
  2553.07    0.2458E+05
  2556.60    0.2448E+05
  2560.14    0.2438E+05
  2563.67    0.2428E+05
  2567.21    0.2419E+05
  2570.75    0.2409E+05
  2574.28    0.2400E+05
  2577.82    0.2390E+05
  2581.35    0.2381E+05
  2584.89    0.2371E+05
  2588.43    0.2362E+05
  2591.96    0.2353E+05
  2595.50    0.2344E+05
  2599.03    0.2335E+05
  2602.57    0.2326E+05
  2606.10    0.2317E+05
  2609.64    0.2308E+05
  2613.18    0.2300E+05
  2616.71    0.2291E+05
  2620.25    0.2282E+05
  2623.78    0.2274E+05
  2627.32    0.2265E+05
  2630.86    0.2257E+05
  2634.39    0.2249E+05
  2637.93    0.2240E+05
  2641.46    0.2232E+05
  2645.00    0.2224E+05
  2648.53    0.2216E+05
  2652.07    0.2208E+05
  2655.61    0.2200E+05
  2659.14    0.2192E+05
  2662.68    0.2184E+05
  2666.21    0.2176E+05
  2669.75    0.2169E+05
  2673.29    0.2161E+05
  2676.82    0.2153E+05
  2680.36    0.2146E+05
  2683.89    0.2138E+05
  2687.43    0.2131E+05
  2690.96    0.2123E+05
  2694.50    0.2116E+05
  2698.04    0.2108E+05
  2701.57    0.2101E+05
  2705.11    0.2094E+05
  2708.64    0.2087E+05
  2712.18    0.2079E+05
  2715.72    0.2072E+05
  2719.25    0.2065E+05
  2722.79    0.2058E+05
  2726.32    0.2051E+05
  2729.86    0.2044E+05
  2733.40    0.2037E+05
  2736.93    0.2030E+05
  2740.47    0.2024E+05
  2744.00    0.2017E+05
  2747.54    0.2010E+05
  2751.07    0.2004E+05
  2754.61    0.1997E+05
  2758.15    0.1990E+05
  2761.68    0.1984E+05
  2765.22    0.1977E+05
  2768.75    0.1971E+05
  2772.29    0.1964E+05
  2775.83    0.1958E+05
  2779.36    0.1951E+05
  2782.90    0.1945E+05
  2786.43    0.1939E+05
  2789.97    0.1933E+05
  2793.50    0.1926E+05
  2797.04    0.1920E+05
  2800.58    0.1914E+05
  2804.11    0.1908E+05
  2807.65    0.1902E+05
  2811.18    0.1896E+05
  2814.72    0.1890E+05
  2818.26    0.1884E+05
  2821.79    0.1878E+05
  2825.33    0.1872E+05
  2828.86    0.1866E+05
  2832.40    0.1860E+05
  2835.93    0.1854E+05
  2839.47    0.1849E+05
  2843.01    0.1843E+05
  2846.54    0.1837E+05
  2850.08    0.1831E+05
  2853.61    0.1826E+05
  2857.15    0.1820E+05
  2860.69    0.1815E+05
  2864.22    0.1809E+05
  2867.76    0.1803E+05
  2871.29    0.1798E+05
  2874.83    0.1792E+05
  2878.37    0.1787E+05
  2881.90    0.1782E+05
  2885.44    0.1776E+05
  2888.97    0.1771E+05
  2892.51    0.1765E+05
  2896.04    0.1760E+05
  2899.58    0.1755E+05
  2903.12    0.1750E+05
  2906.65    0.1744E+05
  2910.19    0.1739E+05
  2913.72    0.1734E+05
  2917.26    0.1729E+05
  2920.80    0.1724E+05
  2924.33    0.1719E+05
  2927.87    0.1714E+05
  2931.40    0.1709E+05
  2934.94    0.1704E+05
  2938.47    0.1699E+05
  2942.01    0.1694E+05
  2945.55    0.1689E+05
  2949.08    0.1684E+05
  2952.62    0.1679E+05
  2956.15    0.1674E+05
  2959.69    0.1669E+05
  2963.23    0.1664E+05
  2966.76    0.1660E+05
  2970.30    0.1655E+05
  2973.83    0.1650E+05
  2977.37    0.1645E+05
  2980.90    0.1641E+05
  2984.44    0.1636E+05
  2987.98    0.1631E+05
  2991.51    0.1627E+05
  2995.05    0.1622E+05
  2998.58    0.1617E+05
  3002.12    0.1613E+05
  3005.66    0.1608E+05
  3009.19    0.1604E+05
  3012.73    0.1599E+05
  3016.26    0.1595E+05
  3019.80    0.1590E+05
  3023.34    0.1586E+05
  3026.87    0.1581E+05
  3030.41    0.1577E+05
  3033.94    0.1573E+05
  3037.48    0.1568E+05
  3041.01    0.1564E+05
  3044.55    0.1560E+05
  3048.09    0.1555E+05
  3051.62    0.1551E+05
  3055.16    0.1547E+05
  3058.69    0.1543E+05
  3062.23    0.1538E+05
  3065.77    0.1534E+05
  3069.30    0.1530E+05
  3072.84    0.1526E+05
  3076.37    0.1522E+05
  3079.91    0.1518E+05
  3083.44    0.1514E+05
  3086.98    0.1510E+05
  3090.52    0.1505E+05
  3094.05    0.1501E+05
  3097.59    0.1497E+05
  3101.12    0.1493E+05
  3104.66    0.1489E+05
  3108.20    0.1485E+05
  3111.73    0.1482E+05
  3115.27    0.1478E+05
  3118.80    0.1474E+05
  3122.34    0.1470E+05
  3125.87    0.1466E+05
  3129.41    0.1462E+05
  3132.95    0.1458E+05
  3136.48    0.1454E+05
  3140.02    0.1451E+05
  3143.55    0.1447E+05
  3147.09    0.1443E+05
  3150.63    0.1439E+05
  3154.16    0.1436E+05
  3157.70    0.1432E+05
  3161.23    0.1428E+05
  3164.77    0.1425E+05
  3168.31    0.1421E+05
  3171.84    0.1417E+05
  3175.38    0.1414E+05
  3178.91    0.1410E+05
  3182.45    0.1407E+05
  3185.98    0.1403E+05
  3189.52    0.1400E+05
  3193.06    0.1396E+05
  3196.59    0.1393E+05
  3200.13    0.1389E+05
  3203.66    0.1386E+05
  3207.20    0.1382E+05
  3210.74    0.1379E+05
  3214.27    0.1375E+05
  3217.81    0.1372E+05
  3221.34    0.1369E+05
  3224.88    0.1365E+05
  3228.41    0.1362E+05
  3231.95    0.1359E+05
  3235.49    0.1355E+05
  3239.02    0.1352E+05
  3242.56    0.1349E+05
  3246.09    0.1346E+05
  3249.63    0.1343E+05
  3253.17    0.1339E+05
  3256.70    0.1336E+05
  3260.24    0.1333E+05
  3263.77    0.1330E+05
  3267.31    0.1327E+05
  3270.84    0.1324E+05
  3274.38    0.1321E+05
  3277.92    0.1318E+05
  3281.45    0.1315E+05
  3284.99    0.1313E+05
  3288.52    0.1310E+05
  3292.06    0.1307E+05
  3295.60    0.1304E+05
  3299.13    0.1302E+05
  3302.67    0.1299E+05
  3306.20    0.1297E+05
  3309.74    0.1294E+05
  3313.28    0.1292E+05
  3316.81    0.1290E+05
  3320.35    0.1287E+05
  3323.88    0.1285E+05
  3327.42    0.1283E+05
  3330.95    0.1282E+05
  3334.49    0.1280E+05
  3338.03    0.1279E+05
  3341.56    0.1277E+05
  3345.10    0.1276E+05
  3348.63    0.1276E+05
  3352.17    0.1275E+05
  3355.71    0.1275E+05
  3359.24    0.1276E+05
  3362.78    0.1277E+05
  3366.31    0.1279E+05
  3369.85    0.1281E+05
  3373.38    0.1285E+05
  3376.92    0.1291E+05
  3380.46    0.1298E+05
  3383.99    0.1307E+05
  3387.53    0.1320E+05
  3391.06    0.1337E+05
  3394.60    0.1361E+05
  3398.14    0.1393E+05
  3401.67    0.1438E+05
  3405.21    0.1504E+05
  3408.74    0.1601E+05
  3412.28    0.1747E+05
  3415.81    0.1969E+05
  3419.35    0.2287E+05
  3422.89    0.2651E+05
  3426.42    0.2846E+05
  3429.96    0.2699E+05
  3433.49    0.2380E+05
  3437.03    0.2086E+05
  3440.57    0.1849E+05
  3444.10    0.1665E+05
  3447.64    0.1534E+05
  3451.17    0.1443E+05
  3454.71    0.1378E+05
  3458.25    0.1332E+05
  3461.78    0.1297E+05
  3465.32    0.1271E+05
  3468.85    0.1250E+05
  3472.39    0.1233E+05
  3475.92    0.1218E+05
  3479.46    0.1206E+05
  3483.00    0.1196E+05
  3486.53    0.1187E+05
  3490.07    0.1179E+05
  3493.60    0.1172E+05
  3497.14    0.1166E+05
  3500.68    0.1160E+05
